Name: Vesuvianite Ca10Mg2Al4(SiO4)5(Si2O7)2(OH)4
Type:  Mineral
Class:  Silicates 
Subclass:   Sorosilicates
Particle Size:  Fine  (less than 2 Micrometers)
Sample No.:  vesuvian.1
Owner:  JHU
Wavelength Range:  IR
Origin:  Quebec, Canada via Norma Vergo

Description:  The sample was a massive piece of striated, green, 
columnar aggregate. It appeared to be pure vesuvianite in hand 
sample and under the microscope.



Measurement:  Transmission 
First Column:  X
Second Column:  Y  
X Units:  Wavelength (micrometers)
Y Units:  Transmittance (percent)
First X Value:  25.0442
Last X Value:  2.079
Number of X Values:  2287
Additional Information:  vesuvi1a.txt

25.04420302	60.7889
24.9237955	59.828
24.80454022	58.0819
24.68642074	55.9569
24.5694209	54.0819
24.45358465	52.4296
24.3387763	51.1483
24.22504094	50.7694
24.11236361	51.0819
24.00072962	51.8436
23.89012454	52.453
23.78053421	52.6131
23.67194472	51.9178
23.56434244	50.6678
23.45771395	48.6346
23.35204611	46.619
23.24732598	44.5331
23.14354087	42.828
23.04067832	41.83
22.93872607	41.3124
22.83767211	40.7284
22.7375046	40.2108
22.63821194	39.6815
22.53978272	39.4921
22.44220571	39.6718
22.3454699	40.5741
22.24956446	41.9765
22.15447875	43.9003
22.06020229	45.6327
21.96677306	46.9491
21.87408402	47.4374
21.7821739	47.4608
21.69103293	47.2069
21.60065148	46.8905
21.5110201	46.2499
21.42212949	45.5702
21.33397051	44.7304
21.24653416	43.9042
21.15981159	42.9608
21.0737941	42.1444
20.98847313	41.3163
20.90384024	40.5311
20.81988716	39.6679
20.73660571	38.6581
20.65398787	37.4374
20.57202575	36.3886
20.49071156	35.5194
20.41003766	35.2304
20.3299965	35.6562
20.25058069	36.5673
20.1717829	37.6063
20.09359597	38.8124
20.01601281	39.8886
19.93906621	40.6845
19.8626695	41.3642
19.78685599	42.1991
19.71161901	43.2968
19.63695203	44.9423
19.56284859	46.5917
19.48930232	48.2089
19.41630698	49.618
19.34385639	50.6805
19.27194448	51.3475
19.20056526	52.1053
19.12971284	52.7587
19.05938141	53.4696
18.98956523	53.992
18.92025868	54.5545
18.85145618	55.0663
18.78315226	55.7235
18.71534153	56.4081
18.64801865	57.161
18.58117838	57.8719
18.51481556	58.6805
18.44892507	59.4139
18.38350191	60.1893
18.31854111	60.9266
18.25407111	61.8709
18.19002023	62.8651
18.12641726	63.7752
18.06325753	64.6737
18.00053642	65.367
17.93824937	65.7264
17.8763919	65.8397
17.81495958	65.5448
17.75394803	64.826
17.69335296	63.8182
17.63317011	62.4666
17.57339529	60.8827
17.51402436	59.2538
17.45505324	57.9706
17.39647791	57.3016
17.3382944	57.2401
17.28049878	57.8133
17.2230872	58.6375
17.16605584	59.6727
17.10940093	60.9002
17.05311876	62.0741
16.99720566	62.8875
16.94165801	63.3504
16.88647225	63.3289
16.83167317	62.8944
16.77720046	62.2215
16.72307919	61.4764
16.66930597	60.5594
16.61587747	59.6913
16.56279037	59.1014
16.51004141	58.9188
16.45762737	59.1688
16.40554507	59.8924
16.35379138	60.8319
16.30236319	61.7078
16.25125744	62.4237
16.20047111	62.9344
16.15000121	63.1483
16.0998448	63.2713
16.04999896	63.3905
16.00048641	63.5897
15.95125297	63.8358
15.90232158	64.368
15.85368947	64.9178
15.80535391	65.4451
15.75731218	65.8367
15.70956162	66.243
15.6620996	66.702
15.61492349	67.3992
15.56803074	68.4422
15.52141878	69.5877
15.47508511	70.6658
15.42902725	71.8045
15.38324273	72.8397
15.33772913	73.8055
15.29248405	74.6912
15.24750513	75.3953
15.20279002	75.8807
15.1583364	76.3172
15.114142	76.742
15.07020455	77.2937
15.02652181	78.0418
14.98309158	79.0096
14.93991168	79.9715
14.89700213	80.9861
14.85431629	81.8963
14.81187438	82.6404
14.76967431	83.1521
14.72771402	83.6541
14.68599147	84.1741
14.64450465	84.6658
14.60325156	85.0271
14.56223023	85.3357
14.52143873	85.5506
14.48087511	85.7171
14.44053748	85.8694
14.40042395	86.0427
14.36053266	86.2249
14.32086177	86.4588
14.28140946	86.5882
14.24217393	86.5882
14.20315338	86.5076
14.16434607	86.3318
14.12575025	86.0725
14.0873642	85.9197
14.0491862	85.8968
14.01121458	86.0745
13.97344765	86.406
13.93590321	86.7947
13.89854065	87.053
13.8613779	87.2854
13.82441336	87.5315
13.78764544	87.6951
13.75107258	87.8069
13.71469324	87.8245
13.67850587	87.7952
13.64250897	87.7166
13.60670103	87.5818
13.57108057	87.408
13.53564612	87.2346
13.50039624	87.0642
13.46532947	86.9646
13.4304444	86.8103
13.39573962	86.6448
13.36121373	86.4104
13.32686536	86.2185
13.29269314	85.989
13.25869572	85.7932
13.22487175	85.5315
13.19121992	85.2205
13.15773892	84.8924
13.12442745	84.6062
13.09130135	84.1062
13.05832501	83.576
13.02551438	82.9998
12.99286821	82.366
12.96038529	81.4724
12.92806437	80.5135
12.89590426	79.3694
12.86390376	78.1199
12.83206168	76.6639
12.80037684	75.1468
12.7688481	73.5003
12.73747429	71.8831
12.70625427	70.2757
12.67518693	68.723
12.64427113	67.1761
12.61350579	65.867
12.58290562	64.6512
12.55243781	63.6346
12.52211719	62.7835
12.4919427	62.2425
12.46191328	61.8397
12.43202789	61.6522
12.40228549	61.5726
12.37268507	61.5506
12.34322561	61.5086
12.31390609	61.5428
12.28472554	61.5077
12.25568296	61.4652
12.22677738	61.3495
12.19800782	61.2249
12.16937334	60.8319
12.14087298	60.287
12.1125058	59.4588
12.08427087	58.432
12.05616727	57.2132
12.02819409	56.0804
12.00035041	54.9125
11.97263534	53.848
11.945048	52.8207
11.9175875	51.8675
11.8902671	50.8417
11.86305761	49.8768
11.83597236	48.7777
11.80901051	47.704
11.78217122	46.6122
11.75545365	45.6376
11.72885698	44.7538
11.70238038	44.0258
11.67602305	43.4105
11.64978419	42.9794
11.62366299	42.6083
11.59765866	42.3871
11.57177043	42.1957
11.54599752	42.0585
11.52033916	41.8886
11.49479458	41.7616
11.46936304	41.5233
11.44404378	41.2328
11.41883606	40.7758
11.39373914	40.143
11.3687523	39.3285
11.34387482	38.4437
11.31910597	37.5341
11.29444505	36.6933
11.26990406	35.9242
11.24545684	35.3564
11.22111545	34.8857
11.19687921	34.5888
11.17274743	34.432
11.14871946	34.4496
11.12479461	34.5194
11.10097222	34.6894
11.07725165	34.8012
11.05363222	34.8085
11.03011331	34.6083
11.00669427	34.2343
10.98337447	33.6015
10.96015327	32.8612
10.93703005	32.1025
10.9140042	31.4902
10.89107509	31.1371
10.86824213	31.1664
10.8455047	31.5097
10.82286221	32.1918
10.80031407	33.0453
10.77785969	34.0024
10.75549848	34.8891
10.73322986	35.6806
10.71106474	36.3144
10.68897956	36.7689
10.66698525	36.9838
10.64508128	37.0238
10.62326708	36.9091
10.6015421	36.7045
10.5799058	36.4301
10.55835763	36.203
10.53689705	36.0351
10.51552354	35.9115
10.49423657	35.7777
10.4730356	35.5468
10.45192012	35.1806
10.43088962	34.786
10.40994358	34.3798
10.38908149	33.998
10.36830285	33.6767
10.34760717	33.4169
10.32699394	33.1972
10.30646267	33.0522
10.28601287	33.0287
10.26564407	33.1254
10.24535578	33.3227
10.22514752	33.6991
10.20502924	34.248
10.1849796	35.0087
10.16500858	36.0019
10.14511574	37.2094
10.12530059	38.5995
10.10556271	40.0653
10.08590162	41.5033
10.0663169	42.7523
10.04680808	43.5629
10.02737473	43.7304
10.00801642	43.0507
9.98873271	41.4765
9.969523168	39.3637
9.950387369	37.1762
9.931324888	35.3305
9.912335307	33.9379
9.893427994	32.8818
9.874582922	31.9926
9.855809507	31.2411
9.83710734	30.6645
9.818476015	30.33
9.799915133	30.2621
9.781424293	30.4667
9.7630031	30.9638
9.744651161	31.7611
9.726368087	32.8617
9.70815349	34.3676
9.690006986	36.2538
9.671928196	38.4867
9.653916739	40.9828
9.635972241	43.7011
9.618094328	46.5077
9.600282632	49.4672
9.582536785	52.4589
9.564856422	55.3456
9.547241181	57.9647
9.529690704	60.3377
9.512204634	62.3553
9.494782617	64.1825
9.477424301	65.8328
9.460138288	67.3494
9.4429063	68.6258
9.425736975	69.7611
9.408629972	70.7347
9.391584952	71.6092
9.374601579	72.3519
9.35767952	73.0433
9.340818443	73.6487
9.324018018	74.1541
9.307277919	74.6453
9.290597822	75.1116
9.273977405	75.5115
9.257416348	75.8924
9.240914333	76.2723
9.224471046	76.617
9.208086173	76.9168
9.191759404	77.2801
9.17549043	77.6468
9.159278945	78.0198
9.143124645	78.4441
9.127027227	78.9109
9.110986392	79.365
9.095001842	79.8577
9.079073281	80.3631
9.06320863	80.8601
9.04739114	81.325
9.031628764	81.8167
9.015921215	82.2732
9.000268208	82.7127
8.984669459	83.1892
8.969124685	83.6209
8.953633608	84.0276
8.93819595	84.4651
8.922811435	84.8987
8.907479789	85.3015
8.89220074	85.6663
8.876974017	86.0427
8.861799353	86.3972
8.846676481	86.7019
8.831605135	87.0042
8.816585054	87.3045
8.801615977	87.5828
8.786697643	87.8499
8.771829795	88.1502
8.757012178	88.4114
8.742244536	88.6716
8.727526619	88.9368
8.712858175	89.22
8.69824652	89.4607
8.683676252	89.7639
8.669154714	90.0256
8.654681663	90.2756
8.640256858	90.5169
8.625880055	90.7852
8.611551018	91.0108
8.597269507	91.2459
8.583035287	91.4763
8.568848124	91.7373
8.554707784	91.9343
8.540614036	92.2031
8.52656665	92.4678
8.512565398	92.7246
8.498610052	92.9453
8.484700388	93.2139
8.470836182	93.4412
8.45701721	93.7043
8.443243252	93.9307
8.429514089	94.199
8.415829502	94.3838
8.402189274	94.625
8.388593191	94.8337
8.375041038	95.0798
8.361539594	95.2527
8.348074642	95.4744
8.334652987	95.6357
8.32127442	95.866
8.307938734	96.0164
8.294645723	96.2473
8.281395183	96.3699
8.268186911	96.5769
8.255020704	96.7112
8.241896361	96.8945
8.228813685	96.9824
8.215772476	97.1755
8.202772537	97.2654
8.189813674	97.418
8.176895691	97.5061
8.164018395	97.6504
8.151188239	97.7043
8.138391724	97.8435
8.125635323	97.9021
8.11291885	98.0176
8.100242116	98.0557
8.087604937	98.1894
8.075007126	98.2246
8.062448501	98.3281
8.049928879	98.3323
8.037448078	98.4148
8.025005918	98.4197
8.012602221	98.4922
8.000236807	98.5215
7.9879095	98.633
7.975620124	98.6882
7.963368505	98.8118
7.951154468	98.8584
7.938977841	98.9578
7.926838452	98.9719
7.914736131	99.0547
7.902670708	99.0618
7.890642014	99.1433
7.878649883	99.157
7.866694148	99.2383
7.854780812	99.2732
7.842897355	99.3743
7.831049799	99.3953
7.819237984	99.4961
7.807461747	99.531
7.795720929	99.6033
7.784015369	99.6182
7.772344909	99.6846
7.760709391	99.6912
7.749108659	99.7497
7.737542556	99.7822
7.726010929	99.824
7.714513623	99.8386
7.703050485	99.8945
7.691621363	99.9277
7.680226106	99.9621
7.668864563	99.988
7.657536586	100.0176
7.646242025	100.0276
7.634980733	100.0505
7.623752563	100.074
7.61255737	100.1094
7.601395008	100.1123
7.590265333	100.1494
7.579173946	100.1814
7.568109199	100.2292
7.557076711	100.2676
7.546076342	100.324
7.535107952	100.3435
7.524171401	100.3767
7.51326655	100.4023
7.502393263	100.427
7.491551403	100.4353
7.480740833	100.4346
7.469961418	100.4519
7.459213023	100.4502
7.448495516	100.5078
7.437808762	100.5227
7.42715263	100.53
7.416526989	100.501
7.405931707	100.5156
7.395366655	100.5
7.384831703	100.5039
7.374326724	100.4678
7.363851589	100.467
7.353406171	100.414
7.342990345	100.3992
7.332603984	100.3799
7.322252325	100.4123
7.311924506	100.3711
7.30162578	100.3752
7.291356025	100.3301
7.281115117	100.3293
7.270902937	100.289
7.260719363	100.3596
7.250564275	100.3127
7.240437554	100.3127
7.230339081	100.2822
7.220268738	100.291
7.210226408	100.1699
7.200211974	100.1611
7.19022532	100.1453
7.18026633	100.1521
7.17033489	100.0654
7.160436013	100.1218
7.150559317	100.0954
7.140709829	100.1511
7.130887439	100.1589
7.121092034	100.1621
7.111323503	100.1003
7.101581735	100.1465
7.091866622	100.0896
7.082178053	100.1103
7.07251592	100.0569
7.062880115	100.0754
7.053270531	99.9343
7.04368706	99.8721
7.034129597	99.9258
7.024598035	99.9963
7.01509227	99.9324
7.005612196	99.9648
6.99615771	99.8962
6.986728709	99.9043
6.977325089	99.8904
6.967946748	99.8889
6.958593585	99.79
6.949265497	99.9504
6.939962385	100.0408
6.930688952	100.114
6.921435478	100.1152
6.912206681	100.1453
6.903002461	100.1338
6.893822721	100.2224
6.884667364	100.2344
6.875536292	100.2644
6.866429409	100.0632
6.857346618	100.1277
6.848287825	100.3547
6.839252935	100.4971
6.830241852	100.4724
6.821254483	100.5212
6.812290735	100.6003
6.803350514	100.6374
6.794433728	100.5393
6.785540285	100.5505
6.776670093	100.6465
6.767823062	100.7248
6.7589991	100.7529
6.750198118	100.7781
6.741420026	100.7949
6.732664735	100.8064
6.723932156	100.793
6.715226709	100.781
6.706539278	100.8249
6.697874296	100.9441
6.689231675	100.9521
6.680611329	100.9123
6.672013173	101.0115
6.663437121	101.1057
6.654883087	101.1687
6.646350987	101.0224
6.637840737	100.8174
6.629352253	100.9343
6.620885451	101.1553
6.612440248	101.208
6.604016563	101.2424
6.595614312	101.2034
6.587233415	101.2119
6.578873789	101.1308
6.570535354	101.0769
6.56221803	101.1924
6.553921736	101.2663
6.545646392	101.2871
6.537391921	101.3489
6.529158241	101.3183
6.520945276	101.2412
6.512757189	101.258
6.504585407	101.219
6.496434107	100.926
6.488303211	100.914
6.480192643	101.0369
6.472102327	101.1267
6.464032186	101.1526
6.455982145	101.1875
6.44795213	101.1201
6.439942066	101.0947
6.431951879	100.9687
6.423981494	100.8857
6.416030838	100.5576
6.408099838	100.5867
6.400188422	100.8616
6.392296516	100.9636
6.384424048	100.9014
6.376570948	100.8545
6.368737143	100.7334
6.360922563	100.79
6.353127136	100.7109
6.345350793	100.5295
6.337593464	100.5061
6.329855078	100.6482
6.322139564	100.5967
6.314438848	100.5857
6.30675687	100.5217
6.29909356	100.5329
6.291448851	100.4726
6.283822676	100.4841
6.276214965	100.4319
6.268625654	100.4443
6.261054675	100.3977
6.253501961	100.4265
6.245967447	100.3945
6.238451067	100.3972
6.230952756	100.3513
6.223472449	100.3874
6.21601008	100.363
6.208565585	100.3838
6.201142747	100.3415
6.1937338	100.2773
6.186342535	100.1152
6.178968891	100.2263
6.171612803	100.4143
6.164274209	100.4844
6.156953047	100.5398
6.149649255	100.6953
6.14236277	100.7256
6.135093533	100.739
6.12784148	100.7229
6.120606552	100.614
6.113388688	100.4363
6.106187828	100.5498
6.099003911	100.6999
6.091836878	100.7717
6.084686669	100.8069
6.077553226	100.749
6.070436489	100.78
6.063336399	100.9851
6.056252899	100.9873
6.049185931	100.7976
6.042135436	101.1189
6.035101357	101.5576
6.02808727	101.7754
6.021085843	101.8249
6.01410066	101.8047
6.007131667	101.8699
6.000178805	101.9397
5.99324202	101.8547
5.986321256	101.8584
5.979416457	101.9494
5.972527568	101.9265
5.965654534	101.9197
5.9587973	102.0622
5.951955813	102.1081
5.945130017	102.0908
5.938319859	101.8796
5.931525286	101.9482
5.924746243	102.2283
5.917982678	102.3281
5.911234538	102.3874
5.904501769	102.375
5.89778432	102.1221
5.891082139	102.1584
5.884395172	102.1492
5.87772337	102.1543
5.871066679	102.3713
5.864428488	102.4238
5.85780186	102.4265
5.851190191	102.5127
5.84459343	102.5222
5.838011527	102.5339
5.831444431	102.4314
5.824892094	102.3103
5.818354465	102.2949
5.811831494	102.5017
5.805323133	102.529
5.798829332	102.5273
5.792350043	102.4841
5.785885217	102.4563
5.779434806	102.3896
5.772998761	102.2908
5.766577035	102.0613
5.760169579	102.1736
5.753776347	102.251
5.747397291	102.2009
5.741032364	102.1667
5.734681519	102.1787
5.728344709	102.1345
5.722021888	102.0928
5.715713009	101.9834
5.709421287	101.9343
5.703140149	101.9382
5.696872816	101.9656
5.690619242	101.8779
5.684379382	101.8826
5.678153192	101.7849
5.671940626	101.7539
5.66574164	101.7556
5.659556189	101.7175
5.653384229	101.6347
5.647225716	101.581
5.641080605	101.4416
5.634948854	101.5105
5.628830419	101.5459
5.622725256	101.529
5.616633323	101.469
5.610557723	101.4656
5.604492113	101.4075
5.598439603	101.3894
5.592400152	101.3625
5.586373717	101.3252
5.580360257	101.2175
5.574359729	101.2156
5.568372092	101.2764
5.562397304	101.2742
5.556435324	101.2302
5.550486112	101.2439
5.544549625	101.2695
5.538625823	101.2861
5.532714665	101.3035
5.526816112	101.3054
5.520930122	101.3271
5.515056656	101.3506
5.509195674	101.3916
5.503347136	101.4092
5.497511002	101.449
5.491687233	101.4785
5.48587579	101.5078
5.480076633	101.4914
5.474289725	101.529
5.468518015	101.5417
5.462755479	101.5525
5.457005076	101.5908
5.451266765	101.6365
5.445540511	101.6316
5.439826274	101.6601
5.434124016	101.6511
5.428433701	101.6355
5.422755291	101.5535
5.417088748	101.5947
5.411434035	101.6396
5.405791116	101.6582
5.400159953	101.655
5.394540509	101.666
5.388932749	101.6311
5.383336635	101.6484
5.377752132	101.6413
5.372179203	101.6543
5.366617813	101.6318
5.361067925	101.6472
5.355529504	101.5967
5.350002515	101.5801
5.344486921	101.5928
5.338982689	101.6406
5.333492627	101.6133
5.328011006	101.6404
5.32254064	101.614
5.317081497	101.613
5.31163354	101.6013
5.306196736	101.6279
5.30077105	101.5947
5.295356449	101.5976
5.289952898	101.5837
5.284560364	101.6279
5.279178813	101.6233
5.273808212	101.6443
5.268448526	101.6347
5.263099724	101.6716
5.257761771	101.6565
5.252434635	101.6872
5.247118283	101.664
5.241812682	101.6933
5.236517799	101.6728
5.231233603	101.708
5.225960061	101.7073
5.220697141	101.7168
5.21544481	101.6931
5.210203036	101.7258
5.204974498	101.7263
5.19975374	101.7361
5.194543444	101.7556
5.189343579	101.7751
5.184154115	101.7663
5.178975019	101.7646
5.173806261	101.7595
5.168647809	101.7688
5.163499634	101.7683
5.158361704	101.7702
5.153233989	101.7585
5.148116459	101.7441
5.143009082	101.7585
5.137911829	101.7536
5.13282467	101.7519
5.127747575	101.7712
5.122680514	101.7746
5.117623458	101.7698
5.112576376	101.7536
5.107539239	101.7676
5.102512018	101.7546
5.097494683	101.7478
5.092487206	101.7585
5.087489558	101.7517
5.082504292	101.7568
5.077526209	101.7566
5.072557868	101.7539
5.06759924	101.7441
5.062650297	101.7549
5.057711011	101.7546
5.052781354	101.751
5.047861297	101.7429
5.042950812	101.7324
5.038049872	101.7295
5.033158448	101.7312
5.028276513	101.7187
5.023404039	101.7168
5.018541	101.6999
5.013687367	101.7129
5.008843113	101.7187
5.004010715	101.7307
4.999185133	101.7204
4.994368849	101.7292
4.989561837	101.709
4.984764069	101.7273
4.979975518	101.7117
4.97519616	101.717
4.970425966	101.696
4.96566491	101.7019
4.960912967	101.7002
4.95617011	101.7156
4.951436313	101.7009
4.94671155	101.7038
4.941995795	101.6882
4.937289023	101.6872
4.932591209	101.6755
4.927902325	101.6921
4.923222347	101.6758
4.918551251	101.6689
4.913889009	101.6553
4.909235598	101.667
4.904590991	101.6413
4.899955165	101.6599
4.895328095	101.6523
4.890712146	101.6582
4.886102507	101.6286
4.88150155	101.6335
4.876909249	101.6269
4.87232558	101.6377
4.86775052	101.615
4.863184043	101.6306
4.858626126	101.6211
4.854076745	101.6072
4.849535875	101.6055
4.845003493	101.6135
4.840479575	101.5957
4.835964098	101.613
4.831457037	101.6062
4.826958369	101.6091
4.822468072	101.6074
4.81798612	101.5947
4.813512492	101.5859
4.809047164	101.6033
4.804590113	101.5906
4.800141316	101.5898
4.79570075	101.5703
4.791268392	101.5798
4.78684422	101.5642
4.782430498	101.5771
4.778022625	101.5576
4.773622869	101.572
4.769231209	101.542
4.764847623	101.5505
4.760472086	101.5603
4.756104579	101.552
4.751745078	101.541
4.747393562	101.53
4.743050009	101.5195
4.738714396	101.5166
4.734386703	101.5163
4.730066907	101.4883
4.725754987	101.5007
4.721450921	101.4765
4.717154688	101.491
4.712866266	101.4656
4.708585635	101.4795
4.704312773	101.4558
4.700047658	101.4343
4.695790271	101.4219
4.691540589	101.4043
4.687298593	101.3845
4.68306426	101.3757
4.67883976	101.366
4.67462069	101.3747
4.670409221	101.3376
4.666205334	101.3447
4.662009009	101.3223
4.657820224	101.3406
4.65363896	101.3301
4.649465195	101.3203
4.645298911	101.324
4.641140087	101.3291
4.636988702	101.3213
4.632844738	101.3437
4.628708174	101.3447
4.62457899	101.3496
4.620457167	101.323
4.616342684	101.3269
4.612235523	101.322
4.608135664	101.3318
4.604043086	101.3271
4.599957772	101.3415
4.595879702	101.3259
4.591808856	101.3122
4.587745215	101.3008
4.58368876	101.3135
4.57964157	101.3103
4.575599426	101.2898
4.571564412	101.2702
4.567536508	101.2781
4.563515696	101.2605
4.559501956	101.282
4.555495271	101.2507
4.551495621	101.241
4.547502989	101.2253
4.543517355	101.2297
4.539538701	101.2136
4.535567009	101.1999
4.531602261	101.196
4.527644439	101.1755
4.523693523	101.1648
4.519749497	101.1755
4.515814382	101.176
4.511884077	101.1687
4.507960608	101.1492
4.504043956	101.1394
4.500134104	101.1384
4.496231034	101.1301
4.492334729	101.1194
4.488445171	101.1062
4.484562343	101.1028
4.480686226	101.1145
4.476816804	101.0901
4.47295406	101.0686
4.469097975	101.0491
4.465248534	101.0505
4.461405718	101.0627
4.45756951	101.0447
4.453739894	101.0369
4.449916853	101.0276
4.44610037	101.0222
4.442290427	101.0354
4.438487009	101.0237
4.434690097	100.99
4.430899676	101.0022
4.42711573	101.009
4.423340197	100.9905
4.419569145	100.9739
4.415804518	100.9802
4.412046298	100.9661
4.408294471	100.9621
4.404549018	100.9338
4.400809925	100.9402
4.397077175	100.9338
4.393350752	100.9221
4.389630639	100.907
4.385916821	100.9099
4.382209282	100.886
4.378508006	100.8894
4.374812977	100.8728
4.371124179	100.8694
4.367441596	100.842
4.363765214	100.8484
4.360095015	100.8274
4.356430985	100.8357
4.352773108	100.8288
4.349121369	100.8352
4.345475751	100.8054
4.341836241	100.8069
4.338202821	100.7878
4.334577357	100.803
4.330956072	100.7956
4.327340832	100.7932
4.323731623	100.7908
4.320128429	100.7825
4.316531235	100.76
4.312940028	100.7619
4.30935479	100.7576
4.305775509	100.7493
4.302202168	100.7356
4.298634754	100.7527
4.29507325	100.7429
4.291517644	100.758
4.287967919	100.7458
4.284424062	100.7546
4.280886058	100.7385
4.277353892	100.7453
4.27382755	100.7151
4.270307018	100.7204
4.266792281	100.6926
4.263283325	100.6902
4.259780136	100.676
4.256282699	100.6428
4.252791	100.6501
4.249306832	100.6609
4.245826565	100.6677
4.242351994	100.6814
4.238883105	100.6555
4.235419885	100.6545
4.231962319	100.6306
4.228510393	100.6277
4.225064094	100.6145
4.221623408	100.594
4.218188322	100.5774
4.214758821	100.5642
4.211334892	100.5486
4.207916522	100.5281
4.204503696	100.51
4.201096402	100.4973
4.197694626	100.4748
4.194300114	100.4695
4.190909331	100.4714
4.187524026	100.4778
4.184144186	100.4651
4.180769797	100.4578
4.177400846	100.426
4.174037321	100.4167
4.170679208	100.4089
4.167326493	100.4104
4.163979165	100.4123
4.16063721	100.3874
4.157300615	100.3845
4.153969367	100.3835
4.150643454	100.3811
4.147322862	100.362
4.144007579	100.3577
4.140697592	100.3425
4.137392888	100.3347
4.134093455	100.3274
4.130799281	100.3132
4.127510352	100.3137
4.124226656	100.3201
4.120948181	100.2981
4.117674914	100.3044
4.114408535	100.2903
4.111145645	100.2878
4.107887925	100.2644
4.104635365	100.2766
4.101387951	100.261
4.098145671	100.2654
4.094908514	100.24
4.091676466	100.2361
4.088449517	100.2414
4.085227653	100.2229
4.082010864	100.2224
4.078799136	100.1975
4.075592459	100.1911
4.072390819	100.1843
4.069194206	100.1726
4.066002607	100.1643
4.062816011	100.1599
4.059634406	100.1565
4.056457779	100.1531
4.053286121	100.1199
4.050119418	100.1208
4.046957659	100.134
4.043800833	100.1306
4.040648928	100.1116
4.037503563	100.1013
4.034361463	100.0886
4.031224251	100.0652
4.028091913	100.0574
4.024964439	100.0608
4.021841819	100.0647
4.018724039	100.0427
4.01561109	100.0105
4.012502959	100.0159
4.009399637	99.9968
4.00630111	99.989
4.00320737	99.9758
4.000118404	99.9851
3.997034201	99.99
3.99395475	99.9568
3.990880041	99.9553
3.987810062	99.9309
3.984744803	99.9377
3.981684252	99.9358
3.9786284	99.9353
3.975577234	99.9192
3.972530744	99.9075
3.96948892	99.8933
3.966451751	99.8747
3.963420797	99.8762
3.960392903	99.8655
3.957369631	99.8381
3.954350972	99.822
3.951336915	99.8147
3.948327449	99.8035
3.945322564	99.7893
3.942322249	99.7834
3.939326493	99.7771
3.936335288	99.759
3.933348621	99.74
3.930366483	99.7327
3.927388864	99.7175
3.924415753	99.7048
3.921447139	99.7136
3.918483014	99.697
3.915523366	99.6995
3.912568186	99.6643
3.909617463	99.6682
3.906671188	99.6516
3.90372935	99.637
3.900791939	99.613
3.897858945	99.6223
3.894930359	99.6111
3.892007684	99.5915
3.889087881	99.5691
3.886172454	99.5632
3.883261396	99.5569
3.880354695	99.5207
3.877452343	99.489
3.874554329	99.4929
3.871660644	99.4714
3.868771278	99.4519
3.865886222	99.4104
3.863005465	99.4314
3.860128998	99.3933
3.857256812	99.4011
3.854388896	99.3816
3.851525243	99.3923
3.848665841	99.3772
3.845812161	99.3616
3.842961232	99.3601
3.840114528	99.3713
3.837272037	99.342
3.834433752	99.3259
3.831599662	99.3186
3.828769759	99.3166
3.825944033	99.2966
3.823122474	99.2996
3.820305074	99.2795
3.817491824	99.261
3.814682714	99.2405
3.811877735	99.2239
3.809076878	99.1848
3.806280134	99.2029
3.803487494	99.1765
3.800698949	99.1619
3.797914489	99.1355
3.795134107	99.1355
3.792357792	99.1116
3.789585537	99.1267
3.786817332	99.1116
3.784053167	99.1062
3.781293036	99.073
3.778538356	99.073
3.77578626	99.0593
3.773038171	99.0613
3.770294079	99.0491
3.767553976	99.0373
3.764817852	99.0046
3.7620857	98.9914
3.759357511	98.9871
3.756633275	98.9509
3.753912985	98.9285
3.751196632	98.9084
3.748484207	98.9045
3.745775701	98.8674
3.743071107	98.8455
3.740370416	98.8518
3.73767362	98.8288
3.734980709	98.7996
3.732291676	98.8088
3.729606512	98.7795
3.726925208	98.7683
3.724247758	98.7478
3.721574151	98.7341
3.718904381	98.7361
3.716238438	98.7205
3.713577694	98.6877
3.71091938	98.6868
3.708264869	98.6765
3.705614154	98.6741
3.702967225	98.657
3.700324074	98.6765
3.697684695	98.6838
3.695049078	98.6467
3.692417215	98.5984
3.689789099	98.5808
3.687164722	98.5647
3.684544075	98.5515
3.68192715	98.5203
3.67931394	98.489
3.676704437	98.4812
3.674098633	98.4753
3.67149652	98.4519
3.66889809	98.4397
3.666303336	98.4206
3.663712249	98.407
3.661124822	98.3967
3.658541047	98.3982
3.655960916	98.383
3.653384422	98.3757
3.65081289	98.3474
3.648243644	98.3367
3.645678012	98.3122
3.643115986	98.3147
3.640557559	98.2956
3.638002722	98.2927
3.635451469	98.2576
3.632903791	98.2346
3.630359682	98.2371
3.627819133	98.2185
3.625282138	98.1882
3.622748688	98.1892
3.620218777	98.1521
3.617692397	98.1453
3.615169541	98.1062
3.6126502	98.1057
3.610135673	98.0779
3.607623341	98.0666
3.605114504	98.0413
3.602609154	98.0237
3.600107283	98.0022
3.597608885	98.0061
3.595113953	97.9763
3.592622478	97.9499
3.590134454	97.948
3.587649874	97.9397
3.585168731	97.908
3.582691017	97.8904
3.580216725	97.8835
3.577745848	97.8303
3.57527838	97.8108
3.572814313	97.7932
3.57035364	97.7795
3.567896354	97.7751
3.565442448	97.7439
3.562991916	97.7322
3.560544749	97.6951
3.558100942	97.6628
3.555660487	97.658
3.553223378	97.6433
3.550790868	97.6169
3.548360427	97.6072
3.545933311	97.6023
3.543509513	97.5652
3.541089027	97.5652
3.538671844	97.5471
3.53625796	97.5237
3.533847367	97.5095
3.531440058	97.4861
3.529036026	97.446
3.526635266	97.447
3.524237769	97.4202
3.52184353	97.4021
3.519452542	97.3874
3.517064798	97.363
3.514680292	97.3284
3.512299017	97.3015
3.509920967	97.2556
3.507546135	97.2268
3.505174514	97.1775
3.502806098	97.1423
3.500440881	97.1018
3.498078855	97.1072
3.495720015	97.0808
3.493365575	97.0828
3.491013085	97.0549
3.488663762	97.033
3.486317598	97.0271
3.483974588	97.0203
3.481634725	96.988
3.479298003	96.969
3.476964415	96.9314
3.474633956	96.9392
3.472306619	96.9011
3.469982397	96.8791
3.467661284	96.8577
3.465343275	96.8455
3.463028363	96.801
3.460716541	96.7937
3.458407804	96.783
3.456102146	96.76
3.453799559	96.7131
3.451500039	96.7146
3.449203579	96.6746
3.446910172	96.6526
3.444619814	96.6208
3.442332497	96.6072
3.440048216	96.5706
3.437768146	96.5647
3.435489916	96.5408
3.433214704	96.5066
3.430942504	96.4851
3.428673309	96.4714
3.426407114	96.4128
3.424143913	96.3679
3.421883699	96.3479
3.419626467	96.3245
3.417372212	96.3064
3.415120926	96.2815
3.412872605	96.2439
3.410627242	96.2205
3.408384831	96.199
3.406145367	96.1951
3.403908845	96.1833
3.401675257	96.1838
3.399444599	96.1912
3.397216864	96.1658
3.394992047	96.1355
3.392770143	96.1482
3.390551144	96.1345
3.388335047	96.0984
3.386121844	96.0623
3.383912676	96.0417
3.381705245	96.0203
3.379500692	95.989
3.377299012	95.9397
3.375100198	95.9216
3.372904246	95.9143
3.370711149	95.8752
3.368520903	95.8484
3.366333501	95.8142
3.364148938	95.7952
3.361967208	95.7654
3.359788306	95.7478
3.357612227	95.7244
3.355438965	95.6882
3.353268515	95.6619
3.35110087	95.6311
3.348937148	95.5857
3.346775098	95.5291
3.344615837	95.5242
3.342459362	95.5256
3.340305665	95.4749
3.338154741	95.4285
3.336006587	95.3982
3.333861195	95.3889
3.33171856	95.3279
3.329578678	95.3025
3.327441544	95.2542
3.32530715	95.197
3.323175494	95.1545
3.321046568	95.1233
3.318920368	95.0818
3.31679689	95.0349
3.314676126	94.988
3.312558073	94.9358
3.310442725	94.885
3.308330077	94.8259
3.306220124	94.7927
3.304112861	94.7307
3.302008281	94.676
3.299906382	94.6272
3.297808244	94.5906
3.295711686	94.5251
3.293617792	94.4959
3.291526557	94.4885
3.289437976	94.4177
3.287352045	94.3616
3.285268756	94.3318
3.283188107	94.2576
3.281110091	94.2283
3.279034705	94.1824
3.276961942	94.1697
3.274891798	94.0916
3.272824267	94.0388
3.270759346	94.01
3.268697029	93.9534
3.26663731	93.9026
3.264580186	93.8494
3.262525652	93.8084
3.260473701	93.7712
3.25842433	93.7127
3.256377534	93.6355
3.254333308	93.5647
3.252291646	93.5359
3.250252545	93.4802
3.248217054	93.4177
3.246183057	93.3377
3.244151606	93.262
3.242122696	93.1721
3.240096322	93.1033
3.238072479	93.012
3.236051163	92.9294
3.234032369	92.8264
3.232016093	92.7053
3.230002329	92.5916
3.227991073	92.4627
3.22598232	92.322
3.223976065	92.2087
3.221972305	92.0745
3.219971033	91.9456
3.217972246	91.7712
3.215975939	91.6272
3.213982108	91.49
3.211990747	91.3396
3.210001852	91.1702
3.208015419	91.0447
3.206031443	90.9002
3.204049919	90.7385
3.202070843	90.574
3.200095235	90.4553
3.19812104	90.3284
3.196149279	90.2307
3.194179949	90.1194
3.192213043	90.0154
3.190248559	89.9436
3.18828649	89.8904
3.186326834	89.8245
3.184369586	89.7815
3.18241474	89.7542
3.180462293	89.7244
3.17851224	89.7249
3.176564577	89.7244
3.1746193	89.7048
3.172676403	89.7576
3.170735883	89.7986
3.168797736	89.8142
3.166861956	89.8474
3.164928541	89.9138
3.162997484	89.9744
3.161068783	90.0291
3.159142432	90.1057
3.157218427	90.1912
3.155296765	90.2737
3.153378435	90.3338
3.151461443	90.4182
3.14954678	90.5076
3.147634443	90.5798
3.145724426	90.6677
3.143816726	90.7249
3.141911338	90.8045
3.140008258	90.885
3.138107483	90.9841
3.136209007	91.053
3.134312827	91.0877
3.132418938	91.1292
3.130527337	91.1775
3.128638019	91.2341
3.126750981	91.2947
3.124866217	91.301
3.122984699	91.3377
3.121104471	91.3709
3.119226507	91.3811
3.1173508	91.3689
3.115477349	91.4011
3.113606148	91.4158
3.111737193	91.4158
3.10987048	91.3928
3.108006006	91.4046
3.106143766	91.4041
3.104283756	91.407
3.102425973	91.3787
3.100570412	91.366
3.098717069	91.323
3.096865941	91.3445
3.095017023	91.325
3.093170311	91.3474
3.091325802	91.3474
3.089483491	91.3425
3.087643375	91.3113
3.085805449	91.3171
3.08396971	91.324
3.082136155	91.365
3.080304778	91.3455
3.078476524	91.3601
3.076649492	91.3621
3.074824627	91.3748
3.073001926	91.3982
3.071181385	91.4363
3.069363	91.4714
3.067546766	91.5222
3.065732681	91.5154
3.06392074	91.5369
3.06211094	91.5691
3.060303276	91.5798
3.058497745	91.6033
3.056694344	91.6033
3.054893068	91.6502
3.053093914	91.6531
3.051296877	91.6882
3.049501955	91.6755
3.047709144	91.6697
3.045918439	91.699
3.044129837	91.698
3.042343335	91.7
3.040558928	91.6824
3.038776613	91.6961
3.036996386	91.6882
3.035219166	91.6472
3.033443104	91.6277
3.031669119	91.6023
3.029897208	91.5545
3.028127367	91.531
3.026359592	91.5066
3.02459388	91.4597
3.022830228	91.4197
3.021068631	91.3767
3.019309085	91.3464
3.017551589	91.3123
3.015796137	91.2713
3.014042726	91.2127
3.012291354	91.1502
3.010542015	91.1277
3.008794707	91.0584
3.007049426	91.0154
3.005306169	90.9744
3.003564931	90.9119
3.00182571	90.8621
3.000088503	90.8289
2.998353304	90.7439
2.996620112	90.6687
2.994888923	90.6062
2.993160628	90.572
2.991433432	90.491
2.989708228	90.4353
2.987985013	90.3738
2.986263784	90.2986
2.984544536	90.2224
2.982827267	90.1756
2.981111973	90.0711
2.97939865	89.9705
2.977687296	89.8728
2.975977906	89.7693
2.974270478	89.6814
2.972565009	89.5984
2.970861493	89.5271
2.96915993	89.45
2.967460314	89.3494
2.965763522	89.2576
2.964067792	89.0965
2.962373999	89.0388
2.960682141	88.9588
2.958992215	88.8709
2.957304216	88.7693
2.955618142	88.7107
2.95393399	88.6658
2.952251756	88.6248
2.950571437	88.5584
2.94889303	88.5486
2.947216531	88.492
2.945541937	88.4343
2.943869245	88.3797
2.942198452	88.3943
2.940529554	88.3318
2.938862549	88.3601
2.937197432	88.3299
2.935534201	88.3123
2.933872853	88.2791
2.932213384	88.283
2.930555792	88.2576
2.928900072	88.2283
2.927246222	88.2088
2.925595095	88.2195
2.923944975	88.2156
2.922296715	88.2107
2.920650312	88.197
2.919005763	88.2039
2.917363066	88.2009
2.915722216	88.1922
2.91408321	88.2156
2.912446047	88.1775
2.910810722	88.242
2.909177232	88.2117
2.907545575	88.1843
2.905915747	88.1883
2.904287745	88.2107
2.902661566	88.2468
2.901037208	88.2273
2.899414666	88.2556
2.897793938	88.3142
2.896175022	88.3093
2.894557913	88.3064
2.892942609	88.2966
2.891329106	88.3484
2.889717403	88.3709
2.888107495	88.3767
2.886500214	88.4392
2.884893888	88.4656
2.883289349	88.4744
2.881686594	88.4607
2.880085619	88.5232
2.878486423	88.5486
2.876889001	88.5554
2.875293352	88.6013
2.873699471	88.6404
2.872107357	88.6443
2.870517006	88.658
2.868928415	88.6775
2.867341582	88.7195
2.865756502	88.739
2.864173175	88.7478
2.862591596	88.7576
2.861011762	88.7898
2.859433672	88.7498
2.857857321	88.7849
2.856282708	88.8054
2.854709829	88.7693
2.853138681	88.7615
2.851569261	88.7888
2.850001568	88.7654
2.848436408	88.822
2.846872156	88.8328
2.845309621	88.8455
2.8437488	88.9109
2.842189691	88.9275
2.840632291	88.9627
2.839076596	89.0007
2.837522604	89.0076
2.835970313	89.1297
2.834419719	89.2381
2.83287082	89.3679
2.831323613	89.4412
2.829778094	89.5398
2.828234263	89.615
2.826692114	89.7459
2.825151647	89.8826
2.823612858	89.9861
2.822075744	90.0525
2.820540303	90.1541
2.819006531	90.2439
2.817474427	90.3591
2.815943987	90.3992
2.81441521	90.4461
2.812888091	90.5505
2.811363418	90.6755
2.809839609	90.742
2.80831745	90.8093
2.806796939	90.8953
2.805278075	91.0046
2.803760853	91.0505
2.802245271	91.1609
2.800731327	91.3474
2.799219018	91.531
2.797708341	91.6804
2.796199294	91.8328
2.794691874	91.9744
2.793186078	92.1062
2.791681905	92.2507
2.79017935	92.3562
2.788678412	92.4002
2.787179865	92.406
2.785682151	92.5095
2.784186046	92.5896
2.782691547	92.6257
2.781198652	92.6248
2.779707358	92.6414
2.778217662	92.6336
2.776729562	92.5711
2.775243056	92.5115
2.77375814	92.4275
2.772274812	92.2791
2.77079307	92.0388
2.769312911	91.8015
2.767834333	91.5213
2.766357333	91.2029
2.764881908	90.8435
2.763408056	90.3787
2.761935774	89.9578
2.760465061	89.5642
2.758995913	89.1638
2.757528328	88.7742
2.756062304	88.2947
2.754597837	88.0008
2.753134926	87.9226
2.751674325	87.9226
2.750214517	88.0584
2.748756257	88.4607
2.747299542	89.0711
2.74584437	89.8298
2.74439074	90.656
2.742938647	91.4304
2.741488091	92.0486
2.740039067	92.5232
2.738591575	93.0349
2.737145611	93.6101
2.735701174	94.0818
2.73425826	94.4998
2.732816867	94.946
2.731376994	95.2078
2.729938636	95.1648
2.728501793	94.9919
2.727066462	94.6169
2.72563264	94.0427
2.724200325	93.6023
2.722769514	93.5623
2.721340206	93.74
2.719912397	94.1101
2.718486086	94.865
2.717062008	95.5349
2.715638684	96.0076
2.714216851	96.3865
2.712796505	96.5945
2.711377646	96.7087
2.709960269	96.7751
2.708544374	96.9861
2.707129958	97.0476
2.705717018	97.1101
2.704305552	97.0603
2.702895558	97.072
2.701487034	96.949
2.700079976	96.9939
2.698674384	96.9695
2.697270255	96.9187
2.695867585	96.8083
2.694466374	96.7361
2.693066619	96.7078
2.691668318	96.739
2.690271467	96.7898
2.688876066	96.7634
2.687482111	96.7068
2.686089602	96.6619
2.684698534	96.6492
2.683309626	96.5818
2.681921436	96.5515
2.680534681	96.574
2.679149359	96.4421
2.677765469	96.4109
2.676383008	96.3806
2.675001973	96.4568
2.673622363	96.4812
2.672244175	96.4685
2.670867407	96.1755
2.669492057	96.0974
2.668118123	96.2498
2.666745602	96.1677
2.665374493	96.0476
2.664004793	96.0828
2.6626365	96.238
2.66127032	96.2185
2.659904834	96.2341
2.658540748	96.1921
2.657178061	96.1833
2.65581677	96.1609
2.654456873	96.0867
2.653098368	96.0427
2.651741253	96.0242
2.650385525	96.0515
2.649031183	96.0388
2.647678224	96.0164
2.646326647	95.9773
2.644976449	95.949
2.643627628	95.9646
2.642280182	95.9041
2.640934109	95.8787
2.639589407	95.8523
2.638246073	95.9138
2.636904106	95.8914
2.635563503	95.8826
2.634224263	95.8123
2.632886383	95.7888
2.631549862	95.74
2.630214697	95.575
2.628881577	95.6257
2.627549117	95.6208
2.626218007	95.5408
2.624888245	95.6169
2.62355983	95.6384
2.622232758	95.5945
2.620907028	95.5085
2.619582638	95.4031
2.618259585	95.4705
2.616937869	95.3835
2.615617486	95.3679
2.614298435	95.4617
2.612980713	95.4529
2.61166432	95.4255
2.610349252	95.4255
2.609035507	95.3992
2.607723085	95.3279
2.606411982	95.282
2.605102197	95.1843
2.603793727	95.196
2.602486572	95.2537
2.601180728	95.2927
2.599876194	95.3259
2.598572968	95.3445
2.597271722	95.281
2.595971105	95.0867
2.59467179	94.8445
2.593373774	94.8992
2.592077057	95.1648
2.590781636	95.1912
2.589487509	95.1804
2.588194675	95.1179
2.58690313	95.0398
2.585612874	95.075
2.584323905	94.9695
2.58303622	94.906
2.581749817	94.99
2.580464695	94.9929
2.579180852	95.032
2.577898286	95.0125
2.576616995	94.9695
2.575336976	94.9451
2.574058229	94.8875
2.572780751	94.8259
2.571504541	94.8904
2.570229596	94.8835
2.568955915	94.863
2.567683495	94.9031
2.566412994	94.906
2.565143091	94.8328
2.563874445	94.7419
2.562607053	94.7693
2.561340913	94.7185
2.560076024	94.7459
2.558812384	94.7546
2.55754999	94.8044
2.556288841	94.7654
2.555028936	94.7937
2.553770272	94.7703
2.552512847	94.7937
2.55125666	94.7263
2.550001709	94.7029
2.548747991	94.7029
2.547495506	94.6882
2.546244252	94.6687
2.544994225	94.6052
2.543745426	94.5896
2.542497852	94.5701
2.5412515	94.5896
2.54000637	94.5476
2.53876246	94.5837
2.537519767	94.5779
2.536278934	94.5193
2.535038671	94.5154
2.53379962	94.5076
2.53256178	94.4666
2.531325149	94.4373
2.530089725	94.449
2.528855506	94.5056
2.52762249	94.4822
2.526390677	94.4509
2.525160064	94.4998
2.523930648	94.4255
2.52270243	94.4294
2.521475406	94.4392
2.520249575	94.406
2.519024936	94.3845
2.517801486	94.3396
2.516579857	94.3298
2.515358781	94.3025
2.514138889	94.2927
2.512920179	94.2439
2.511702651	94.2419
2.510486301	94.2849
2.50927113	94.2068
2.508057134	94.2341
2.506844312	94.2654
2.505632662	94.197
2.504422183	94.1169
2.503212874	94.1169
2.502004731	94.1072
2.500797754	94.074
2.499591942	94.0935
2.498387291	94.0564
2.497183801	94.0935
2.49598147	94.0935
2.494780296	94.0212
2.493580278	93.9822
2.492381413	93.9587
2.491183701	93.9841
2.489987139	93.9744
2.488791726	94.0408
2.48759808	93.9744
2.486404959	93.9431
2.485212983	93.9177
2.484022149	93.9451
2.482832455	93.9138
2.4816439	93.9294
2.480456483	93.8748
2.479270202	93.8513
2.478085055	93.8533
2.47690104	93.7654
2.475718156	93.8181
2.474536402	93.8709
2.473355775	93.8904
2.472176274	93.8259
2.470997898	93.8591
2.469820644	93.8025
2.468644512	93.7947
2.467469499	93.8533
2.466295604	93.7654
2.465122826	93.74
2.463951163	93.6892
2.462780612	93.6736
2.461611174	93.6502
2.460442845	93.6169
2.45927623	93.613
2.458110116	93.5857
2.456945108	93.6189
2.455781204	93.5095
2.454618401	93.5896
2.4534567	93.572
2.452296097	93.5466
2.451136592	93.5896
2.449978183	93.5564
2.448820868	93.6091
2.447664646	93.5466
2.446509516	93.5369
2.445355475	93.5486
2.444202523	93.4627
2.443050657	93.4548
2.441899876	93.4841
2.440750179	93.4627
2.439601564	93.4451
2.43845403	93.4255
2.437307575	93.4959
2.436162197	93.49
2.435017895	93.5154
2.433874668	93.4509
2.432732513	93.406
2.431592022	93.4451
2.430452008	93.4275
2.429313063	93.3943
2.428175185	93.3396
2.427038372	93.3298
2.425902624	93.3201
2.424767938	93.363
2.423634312	93.2908
2.422501747	93.2888
2.421370239	93.3142
2.420239788	93.2576
2.419110392	93.2966
2.417982049	93.2517
2.416854758	93.2419
2.415728518	93.2263
2.414603328	93.1794
2.413479185	93.1326
2.412356088	93.0662
2.411234036	93.0779
2.410113027	93.0935
2.40899306	93.0955
2.407874134	93.0798
2.406756246	93.113
2.405639396	93.0642
2.40452416	92.9919
2.40340938	92.9802
2.402295634	93.0544
2.401182919	93.0466
2.400071234	93.0115
2.398960578	93.0408
2.39785095	92.9959
2.396742348	92.9841
2.39563477	92.9705
2.394528216	92.9959
2.393422683	93.0388
2.392318171	93.0037
2.391214677	92.988
2.390112201	93.0037
2.389010742	92.9861
2.387910297	92.988
2.386811435	92.9627
2.385713014	93.0076
2.384615605	93.0408
2.383519204	92.9861
2.382423811	93.0095
2.381329425	93.0193
2.380236043	92.9158
2.379143665	92.8904
2.37805229	92.9158
2.376961915	92.8982
2.375872539	92.9763
2.374784162	92.9646
2.373696781	93.0232
2.372610396	92.9255
2.371525004	92.9255
2.370440606	92.906
2.369357198	92.9334
2.368274781	92.988
2.367193351	92.9236
2.366112909	92.8826
2.365033453	92.908
2.363954982	92.8748
2.362877493	92.8669
2.361800987	92.8377
2.360726018	92.7888
2.35965147	92.8709
2.3585779	92.8005
2.357505307	92.7986
2.356433688	92.7654
2.355363044	92.697
2.354293372	92.6755
2.353224671	92.7127
2.35215694	92.7888
2.351090177	92.7107
2.350024382	92.7029
2.348959552	92.6951
2.347895687	92.7048
2.346832785	92.7185
2.345770845	92.6521
2.344709866	92.6638
2.343649846	92.697
2.342590784	92.6834
2.341532678	92.699
2.340475528	92.6951
2.339419333	92.6892
2.33836409	92.6834
2.337309798	92.6267
2.336256457	92.6521
2.335204611	92.6638
2.334153166	92.6502
2.333102667	92.6013
2.332053114	92.6287
2.331004504	92.6033
2.329956838	92.6423
2.328910112	92.6482
2.327864326	92.6111
2.32681948	92.5857
2.325775571	92.6013
2.324732598	92.5427
2.32369056	92.5584
2.322649456	92.5896
2.321609284	92.6033
2.320570043	92.4939
2.319531733	92.4841
2.318494351	92.4763
2.317457897	92.4861
2.316422369	92.4763
2.315387766	92.406
2.314354087	92.488
2.31332133	92.4548
2.312289495	92.3865
2.31125858	92.4099
2.310229117	92.4705
2.309200038	92.4451
2.308171875	92.4392
2.307144627	92.4529
2.306118293	92.4939
2.305092872	92.4705
2.304068363	92.5896
2.303044763	92.5466
2.302022073	92.6013
2.301000291	92.533
2.299979415	92.5505
2.298959445	92.4705
2.297940379	92.5545
2.296922216	92.6248
2.295904955	92.6423
2.294888595	92.5779
2.29387366	92.4783
2.292859097	92.5076
2.291845431	92.5349
2.29083266	92.5564
2.289820785	92.5076
2.288809803	92.5037
2.287799713	92.5466
2.286790515	92.5017
2.285782206	92.531
2.284774786	92.5584
2.283768254	92.4998
2.282762608	92.488
2.281757848	92.447
2.280753972	92.4334
2.279750978	92.408
2.278748867	92.4216
2.277747636	92.3982
2.276747284	92.4939
2.275747811	92.447
2.274749215	92.3982
2.273751494	92.3357
2.272754649	92.4295
2.271758677	92.3689
2.270763578	92.2986
2.269769866	92.3377
2.268776508	92.2263
2.267784019	92.2517
2.266792398	92.2771
2.265801644	92.2341
2.264811756	92.3455
2.263822732	92.2595
2.262834571	92.2537
2.261847273	92.2283
2.260860836	92.238
2.259875259	92.1033
2.258890541	92.2107
2.257906681	92.281
2.256923678	92.3435
2.25594153	92.2693
2.254960236	92.3142
2.253979796	92.322
2.253000208	92.322
2.252021471	92.3552
2.251043584	92.3474
2.250066546	92.2849
2.249090355	92.3045
2.248115012	92.3865
2.247140514	92.3298
2.246167365	92.3123
2.245194554	92.2908
2.244222586	92.3084
2.243251458	92.3064
2.242281171	92.2224
2.241311723	92.2068
2.240343113	92.2459
2.23937534	92.2752
2.238408402	92.2595
2.237442299	92.2986
2.23647703	92.3435
2.235512593	92.2263
2.234548988	92.283
2.233586213	92.2498
2.232624267	92.3923
2.231663149	92.3611
2.230702859	92.3435
2.229743394	92.408
2.228784755	92.3611
2.22782694	92.3767
2.226869947	92.4373
2.225913777	92.5076
2.224958427	92.531
2.224003896	92.5252
2.223050679	92.5095
2.222097785	92.4314
2.221145707	92.4002
2.220194445	92.3513
2.219243997	92.4314
2.218294362	92.4236
2.21734554	92.408
2.21639753	92.4158
2.215450329	92.3455
2.214503938	92.2888
2.213558355	92.2673
2.212613579	92.2966
2.211669609	92.3513
2.210726445	92.2361
2.209784084	92.283
2.208842527	92.1892
2.207901771	92.2029
2.206961817	92.3064
2.206022662	92.2185
2.205084307	92.3357
2.204146749	92.3826
2.203209989	92.3689
2.202274024	92.283
2.201338854	92.281
2.200404963	92.322
2.199471379	92.3298
2.198538587	92.367
2.197606587	92.283
2.196675376	92.367
2.195744954	92.283
2.194815319	92.3513
2.193886472	92.3045
2.192958411	92.2732
2.192031134	92.3298
2.191104641	92.3455
2.190178931	92.2576
2.189254003	92.2654
2.188329856	92.2888
2.187406488	92.3611
2.1864839	92.3123
2.185562567	92.2205
2.184641533	92.2517
2.183721275	92.2654
2.182801792	92.2908
2.181883083	92.2654
2.180965147	92.1716
2.180047983	92.2283
2.17913159	92.1716
2.178215967	92.2576
2.177301113	92.1638
2.176387028	92.2517
2.175473709	92.2205
2.174561157	92.2498
2.17364937	92.2517
2.172738348	92.3298
2.171828089	92.3396
2.170918592	92.1404
2.170009856	92.1482
2.169101881	92.2439
2.168194666	92.3064
2.167288209	92.3357
2.166382509	92.3377
2.165477567	92.2654
2.16457338	92.3045
2.163670416	92.3904
2.162767737	92.3904
2.161865811	92.3064
2.160964637	92.3123
2.160064214	92.2498
2.159164542	92.367
2.158265618	92.2224
2.157367442	92.242
2.156470014	92.1599
2.155573332	92.1873
2.154677395	92.2302
2.153782203	92.2107
2.152887754	92.1716
2.151994048	92.0349
2.151101084	92.113
2.150208861	92.1365
2.149317377	92.1677
2.148426632	92.1248
2.147536625	92.2146
2.146647355	92.1755
2.145758822	92.1912
2.144871024	92.117
2.14398396	92.3279
2.143097629	92.3474
2.14221249	92.3435
2.141327623	92.2459
2.140443487	92.2693
2.139560081	92.3435
2.138677403	92.363
2.137795454	92.2263
2.136914232	92.3513
2.136033736	92.281
2.135153965	92.2615
2.134274919	92.2224
2.133396596	92.1482
2.132518995	92.1795
2.131642117	92.2771
2.130765959	92.2732
2.129890521	92.2576
2.129015803	92.1677
2.128141802	92.113
2.127268519	92.1834
2.126395952	92.0974
2.125524101	92.0545
2.124652964	92.0115
2.123782542	91.992
2.122912832	92.0701
2.122043834	92.1755
2.121175997	92.2224
2.12030842	92.1834
2.119441553	92.2302
2.118575394	92.3045
2.117709942	92.2771
2.116845198	92.2576
2.115981159	92.3123
2.115117826	92.3982
2.114255197	92.4568
2.113393271	92.3435
2.112532047	92.2341
2.111671525	92.3591
2.110811704	92.2263
2.109952583	92.2302
2.109094161	92.1404
2.108236437	92.117
2.107379855	92.0818
2.106523524	92.1287
2.105667889	92.0545
2.104812949	92.1521
2.103958703	92.1521
2.103105151	91.8982
2.10225229	92.0037
2.101400121	92.1404
2.100548642	92.0974
2.099697853	92.0701
2.098847754	92.0271
2.097998342	92.1482
2.097149617	92.1599
2.096301579	92.0115
2.095454226	92.0896
2.094607559	92.242
2.093761575	92.0974
2.092916274	92.1482
2.092071655	92.1365
2.091227718	92.2302
2.090384461	92.2185
2.089541885	92.1716
2.088699987	92.0349
2.087858767	92.0349
2.08701866	92.0115
2.086178794	92.0037
2.085339604	92.1248
2.084501088	92.0154
2.083663247	92.0779
2.082826078	92.1873
2.081989583	92.1287
2.081153758	92.1091
2.080318605	92.1091
2.079484122	92.1677
