Name:  Rhodonite (Mn+2,Fe+2,Mg,Ca)SiO3
Type:  Mineral
Class: Silicates 
Subclass:   Inosilicates (chain silicates); (Pyroxenoid Group)
Particle Size:  Fine (Less than 2 Micrometers)
Sample No.:  rhodon.1
Owner:  JHU
Wavelength Range:  IR
Origin: Franklin, New Jersey via the Smithsonian (sample no. NMNH 
C6148)
Description:  The hand sample was composed of two fragments, each 
about 2 cm x 2 cm x 1 cm. Pink rhodonite crystals were removed 
from host rock by sawing to free pure rhodonite. Under the 
petrographic microscope, many of the grains show a small degree of 
unidentified alteration, likely accounting for the strong hydroxyl 
bands near 2.7 micrometers. 
Measurement:  Transmission 
First Column:  X
Second Column:  Y  
X Units:  Wavelength (micrometers)
Y Units:  Transmittance (percent)
First X Value:  25.0442
Last X Value:  2.079
Number of X Values:  2287
Additional Information:  rhodon1a.txt

25.04420302	84.6638
24.9237955	83.2654
24.80454022	81.992
24.68642074	81.1951
24.5694209	79.3904
24.45358465	77.0037
24.3387763	74.7381
24.22504094	73.6248
24.11236361	73.8904
24.00072962	74.6443
23.89012454	75.3162
23.78053421	75.7029
23.67194472	75.5154
23.56434244	74.2225
23.45771395	72.0467
23.35204611	69.5662
23.24732598	66.8123
23.14354087	64.2909
23.04067832	61.8436
22.93872607	59.2596
22.83767211	56.4061
22.7375046	53.0077
22.63821194	49.5389
22.53978272	45.996
22.44220571	43.1405
22.3454699	41.0018
22.24956446	39.4237
22.15447875	38.3144
22.06020229	37.7538
21.96677306	37.6425
21.87408402	38.121
21.7821739	39.1874
21.69103293	41.0331
21.60065148	43.5097
21.5110201	46.4374
21.42212949	49.7206
21.33397051	53.0116
21.24653416	56.3924
21.15981159	59.5428
21.0737941	62.4256
20.98847313	64.5741
20.90384024	65.6951
20.81988716	65.5467
20.73660571	64.3475
20.65398787	62.1248
20.57202575	59.4081
20.49071156	56.9862
20.41003766	55.3592
20.3299965	54.5311
20.25058069	54.6014
20.1717829	55.0702
20.09359597	55.3924
20.01601281	55.4295
19.93906621	55.3924
19.8626695	55.3553
19.78685599	55.5487
19.71161901	56.203
19.63695203	56.9706
19.56284859	57.1913
19.48930232	57.2616
19.41630698	57.1756
19.34385639	57.5819
19.27194448	59.3006
19.20056526	62.3055
19.12971284	65.8475
19.05938141	69.2459
18.98956523	71.9461
18.92025868	73.4149
18.85145618	73.7264
18.78315226	73.2127
18.71534153	72.2068
18.64801865	71.9295
18.58117838	73.3924
18.51481556	75.8055
18.44892507	78.1219
18.38350191	80.0945
18.31854111	81.4236
18.25407111	81.8514
18.19002023	81.492
18.12641726	80.2273
18.06325753	78.0437
18.00053642	75.3211
17.93824937	72.9979
17.8763919	71.5818
17.81495958	71.7313
17.75394803	73.1375
17.69335296	74.7547
17.63317011	75.7303
17.57339529	75.9461
17.51402436	75.1561
17.45505324	73.3289
17.39647791	71.0945
17.3382944	69.6912
17.28049878	69.744
17.2230872	71.7088
17.16605584	75.0252
17.10940093	78.6248
17.05311876	81.7849
16.99720566	84.2869
16.94165801	86.072
16.88647225	87.3728
16.83167317	88.3728
16.77720046	89.2752
16.72307919	89.8523
16.66930597	90.3142
16.61587747	90.7156
16.56279037	90.8923
16.51004141	91.1541
16.45762737	91.24
16.40554507	91.4539
16.35379138	91.613
16.30236319	91.7849
16.25125744	91.9587
16.20047111	92.0886
16.15000121	92.0164
16.0998448	92.1384
16.04999896	92.0115
16.00048641	91.6677
15.95125297	91.4685
15.90232158	91.2273
15.85368947	90.8982
15.80535391	90.6023
15.75731218	90.0974
15.70956162	89.5369
15.6620996	88.7869
15.61492349	88.0584
15.56803074	87.6609
15.52141878	87.699
15.47508511	87.8445
15.42902725	87.9607
15.38324273	87.7703
15.33772913	87.1668
15.29248405	86.114
15.24750513	84.5535
15.20279002	82.5926
15.1583364	80.2117
15.114142	77.5076
15.07020455	75.2889
15.02652181	74.2127
14.98309158	74.7352
14.93991168	76.7518
14.89700213	79.6473
14.85431629	82.6092
14.81187438	85.1326
14.76967431	87.115
14.72771402	88.5476
14.68599147	89.2732
14.64450465	89.4929
14.60325156	89.3357
14.56223023	88.865
14.52143873	88.2429
14.48087511	87.7693
14.44053748	87.6785
14.40042395	87.989
14.36053266	88.4666
14.32086177	88.7664
14.28140946	88.7468
14.24217393	88.5613
14.20315338	88.6238
14.16434607	88.7986
14.12575025	88.8621
14.0873642	88.5857
14.0491862	87.8025
14.01121458	86.45
13.97344765	84.4285
13.93590321	82.1892
13.89854065	80.6756
13.8613779	80.4851
13.82441336	81.826
13.78764544	83.9978
13.75107258	86.2464
13.71469324	88.2737
13.67850587	89.8499
13.64250897	90.8948
13.60670103	91.5798
13.57108057	92.0935
13.53564612	92.4924
13.50039624	92.6917
13.46532947	92.8577
13.4304444	92.9158
13.39573962	92.7307
13.36121373	92.6292
13.32686536	92.4744
13.29269314	92.3845
13.25869572	92.3401
13.22487175	92.2439
13.19121992	92.0452
13.15773892	91.8577
13.12442745	91.738
13.09130135	91.6365
13.05832501	91.4846
13.02551438	91.2522
12.99286821	91.1389
12.96038529	90.7927
12.92806437	90.2913
12.89590426	90.0647
12.86390376	89.9866
12.83206168	89.7307
12.80037684	89.3264
12.7688481	89.0623
12.73747429	89.0042
12.70625427	88.781
12.67518693	88.5393
12.64427113	88.3674
12.61350579	88.1287
12.58290562	87.7693
12.55243781	87.3943
12.52211719	86.9822
12.4919427	86.5784
12.46191328	86.18
12.43202789	85.8523
12.40228549	85.5027
12.37268507	85.0843
12.34322561	84.5554
12.31390609	84.0276
12.28472554	83.4846
12.25568296	82.8128
12.22677738	82.3089
12.19800782	81.824
12.16937334	81.283
12.14087298	80.5389
12.1125058	79.8328
12.08427087	79.1111
12.05616727	78.2913
12.02819409	77.5257
12.00035041	76.5706
11.97263534	75.6561
11.945048	74.6238
11.9175875	73.5428
11.8902671	72.5164
11.86305761	71.3904
11.83597236	70.1248
11.80901051	68.7645
11.78217122	67.432
11.75545365	65.9471
11.72885698	64.3421
11.70238038	62.5238
11.67602305	60.537
11.64978419	58.4178
11.62366299	56.1268
11.59765866	53.786
11.57177043	51.4335
11.54599752	49.264
11.52033916	47.4554
11.49479458	45.9481
11.46936304	44.8129
11.44404378	44.0653
11.41883606	43.7089
11.39373914	43.5585
11.3687523	43.3344
11.34387482	42.6918
11.31910597	41.3969
11.29444505	39.6488
11.26990406	37.621
11.24545684	35.4765
11.22111545	33.4403
11.19687921	31.7392
11.17274743	30.5263
11.14871946	30.0551
11.12479461	30.3539
11.10097222	31.2001
11.07725165	32.4457
11.05363222	33.7382
11.03011331	34.789
11.00669427	35.3671
10.98337447	35.621
10.96015327	35.6098
10.93703005	35.4984
10.9140042	35.6151
10.89107509	36.0336
10.86824213	36.8168
10.8455047	38.0102
10.82286221	39.4789
10.80031407	41.038
10.77785969	42.5297
10.75549848	43.5238
10.73322986	43.828
10.71106474	43.3739
10.68897956	42.1933
10.66698525	40.6742
10.64508128	38.5985
10.62326708	36.2782
10.6015421	34.4633
10.5799058	33.3476
10.55835763	33.0902
10.53689705	33.5155
10.51552354	34.3134
10.49423657	35.1996
10.4730356	36.0517
10.45192012	36.955
10.43088962	38.0746
10.40994358	39.6347
10.38908149	41.7206
10.36830285	44.3095
10.34760717	47.1727
10.32699394	50.0394
10.30646267	52.6405
10.28601287	54.8622
10.26564407	56.5492
10.24535578	57.68
10.22514752	58.1932
10.20502924	58.0941
10.1849796	57.4417
10.16500858	56.3495
10.14511574	55.0282
10.12530059	53.6869
10.10556271	52.2186
10.08590162	50.5624
10.0663169	48.9637
10.04680808	47.6825
10.02737473	46.9843
10.00801642	46.9554
9.98873271	47.5136
9.969523168	48.2743
9.950387369	48.8143
9.931324888	48.7718
9.912335307	48.0707
9.893427994	46.8778
9.874582922	45.4105
9.855809507	43.9008
9.83710734	42.5277
9.818476015	41.3226
9.799915133	40.3622
9.781424293	39.6742
9.7630031	39.2763
9.744651161	39.121
9.726368087	39.2186
9.70815349	39.518
9.690006986	39.9516
9.671928196	40.5448
9.653916739	41.2548
9.635972241	42.1098
9.618094328	42.9672
9.600282632	43.6058
9.582536785	43.7894
9.564856422	43.3095
9.547241181	42.1229
9.529690704	40.3578
9.512204634	38.369
9.494782617	36.5395
9.477424301	35.1191
9.460138288	34.2841
9.4429063	33.9672
9.425736975	33.9931
9.408629972	34.1884
9.391584952	34.4198
9.374601579	34.6679
9.35767952	34.8935
9.340818443	35.0907
9.324018018	35.3183
9.307277919	35.5277
9.290597822	35.746
9.273977405	36.0219
9.257416348	36.2973
9.240914333	36.6181
9.224471046	37.0321
9.208086173	37.5312
9.191759404	38.1488
9.17549043	38.8227
9.159278945	39.4862
9.143124645	40.0082
9.127027227	40.5165
9.110986392	41.1474
9.095001842	42.077
9.079073281	43.4374
9.06320863	45.2675
9.04739114	47.4418
9.031628764	49.7953
9.015921215	52.1698
9.000268208	54.4437
8.984669459	56.4398
8.969124685	58.284
8.953633608	60.037
8.93819595	61.5877
8.922811435	63.0667
8.907479789	64.5472
8.89220074	65.9256
8.876974017	67.2484
8.861799353	68.5916
8.846676481	69.8675
8.831605135	70.9197
8.816585054	71.869
8.801615977	72.868
8.786697643	73.7269
8.771829795	74.4686
8.757012178	75.2356
8.742244536	75.9656
8.727526619	76.618
8.712858175	77.3211
8.69824652	77.9578
8.683676252	78.4842
8.669154714	78.9373
8.654681663	79.4637
8.640256858	79.9402
8.625880055	80.326
8.611551018	80.7635
8.597269507	81.2683
8.583035287	81.7513
8.568848124	82.1438
8.554707784	82.5603
8.540614036	82.9207
8.52656665	83.2288
8.512565398	83.5794
8.498610052	83.9446
8.484700388	84.2737
8.470836182	84.6136
8.45701721	84.9793
8.443243252	85.2747
8.429514089	85.5945
8.415829502	86.0154
8.402189274	86.3914
8.388593191	86.7168
8.375041038	87.1404
8.361539594	87.5098
8.348074642	87.823
8.334652987	88.1494
8.32127442	88.5012
8.307938734	88.7986
8.294645723	89.0916
8.281395183	89.4151
8.268186911	89.7283
8.255020704	90.03
8.241896361	90.3191
8.228813685	90.635
8.215772476	90.8777
8.202772537	91.113
8.189813674	91.374
8.176895691	91.6143
8.164018395	91.8113
8.151188239	92.0173
8.138391724	92.2109
8.125635323	92.3396
8.11291885	92.4705
8.100242116	92.6433
8.087604937	92.8115
8.075007126	92.9492
8.062448501	93.0811
8.049928879	93.2012
8.037448078	93.2976
8.025005918	93.3516
8.012602221	93.4541
8.000236807	93.5759
7.9879095	93.6719
7.975620124	93.7439
7.963368505	93.822
7.951154468	93.8879
7.938977841	93.9441
7.926838452	93.9656
7.914736131	94.0195
7.902670708	94.0544
7.890642014	94.03
7.878649883	94.0271
7.866694148	94.0564
7.854780812	94.1035
7.842897355	94.1511
7.831049799	94.2158
7.819237984	94.3298
7.807461747	94.4795
7.795720929	94.6133
7.784015369	94.6648
7.772344909	94.7498
7.760709391	94.875
7.749108659	94.9758
7.737542556	95.0696
7.726010929	95.1589
7.714513623	95.2666
7.703050485	95.3523
7.691621363	95.4717
7.680226106	95.5449
7.668864563	95.613
7.657536586	95.7
7.646242025	95.7971
7.634980733	95.8691
7.623752563	95.9255
7.61255737	95.9922
7.601395008	96.0227
7.590265333	96.084
7.579173946	96.1436
7.568109199	96.2139
7.557076711	96.2998
7.546076342	96.3806
7.535107952	96.4287
7.524171401	96.498
7.51326655	96.5564
7.502393263	96.6523
7.491551403	96.7082
7.480740833	96.7722
7.469961418	96.8611
7.459213023	96.9412
7.448495516	96.9626
7.437808762	97.0107
7.42715263	97.0886
7.416526989	97.1697
7.405931707	97.2117
7.395366655	97.2656
7.384831703	97.3542
7.374326724	97.4163
7.363851589	97.4968
7.353406171	97.5752
7.342990345	97.6387
7.332603984	97.6853
7.322252325	97.7324
7.311924506	97.7861
7.30162578	97.865
7.291356025	97.9385
7.281115117	98.0183
7.270902937	98.0515
7.260719363	98.0779
7.250564275	98.1396
7.240437554	98.2031
7.230339081	98.2624
7.220268738	98.2996
7.210226408	98.282
7.200211974	98.2244
7.19022532	98.2158
7.18026633	98.2595
7.17033489	98.2805
7.160436013	98.2976
7.150559317	98.3523
7.140709829	98.3826
7.130887439	98.3611
7.121092034	98.4392
7.111323503	98.5127
7.101581735	98.53
7.091866622	98.5476
7.082178053	98.6091
7.07251592	98.6338
7.062880115	98.616
7.053270531	98.6912
7.04368706	98.7148
7.034129597	98.7175
7.024598035	98.7617
7.01509227	98.7839
7.005612196	98.7519
6.99615771	98.7617
6.986728709	98.8367
6.977325089	98.8076
6.967946748	98.8201
6.958593585	98.883
6.949265497	98.8789
6.939962385	98.8672
6.930688952	98.8757
6.921435478	98.947
6.912206681	98.9773
6.903002461	98.9914
6.893822721	99.0408
6.884667364	99.0735
6.875536292	99.1047
6.866429409	99.2051
6.857346618	99.2961
6.848287825	99.2822
6.839252935	99.3074
6.830241852	99.3708
6.821254483	99.4021
6.812290735	99.3642
6.803350514	99.4004
6.794433728	99.4678
6.785540285	99.4805
6.776670093	99.5076
6.767823062	99.5261
6.7589991	99.5242
6.750198118	99.5535
6.741420026	99.5476
6.732664735	99.5332
6.723932156	99.5364
6.715226709	99.5412
6.706539278	99.5583
6.697874296	99.5976
6.689231675	99.6355
6.680611329	99.6826
6.672013173	99.6829
6.663437121	99.6728
6.654883087	99.667
6.646350987	99.6745
6.637840737	99.6885
6.629352253	99.6875
6.620885451	99.6506
6.612440248	99.6814
6.604016563	99.7432
6.595614312	99.7595
6.587233415	99.7764
6.578873789	99.793
6.570535354	99.8193
6.56221803	99.7754
6.553921736	99.7414
6.545646392	99.7529
6.537391921	99.7292
6.529158241	99.6912
6.520945276	99.7322
6.512757189	99.707
6.504585407	99.656
6.496434107	99.741
6.488303211	99.7305
6.480192643	99.6589
6.472102327	99.6514
6.464032186	99.6406
6.455982145	99.6045
6.44795213	99.6247
6.439942066	99.6267
6.431951879	99.6328
6.423981494	99.6081
6.416030838	99.6269
6.408099838	99.5964
6.400188422	99.4744
6.392296516	99.4228
6.384424048	99.4363
6.376570948	99.4277
6.368737143	99.4062
6.360922563	99.3389
6.353127136	99.3008
6.345350793	99.2988
6.337593464	99.2295
6.329855078	99.1555
6.322139564	99.1526
6.314438848	99.1619
6.30675687	99.1902
6.29909356	99.1767
6.291448851	99.1514
6.283822676	99.1406
6.276214965	99.1084
6.268625654	99.0818
6.261054675	99.0574
6.253501961	99.0276
6.245967447	98.9968
6.238451067	98.9578
6.230952756	98.928
6.223472449	98.9131
6.21601008	98.8933
6.208565585	98.8447
6.201142747	98.7383
6.1937338	98.6435
6.186342535	98.5818
6.178968891	98.5303
6.171612803	98.448
6.164274209	98.4636
6.156953047	98.5273
6.149649255	98.5788
6.14236277	98.5696
6.135093533	98.5115
6.12784148	98.4685
6.120606552	98.573
6.113388688	98.7676
6.106187828	98.8601
6.099003911	98.8701
6.091836878	98.9043
6.084686669	98.958
6.077553226	99.029
6.070436489	99.0349
6.063336399	99.0098
6.056252899	99.05
6.049185931	99.1648
6.042135436	99.165
6.035101357	99.1523
6.02808727	99.2256
6.021085843	99.1804
6.01410066	99.0635
6.007131667	98.9502
6.000178805	98.8769
5.99324202	98.8733
5.986321256	98.907
5.979416457	98.9336
5.972527568	99.042
5.965654534	99.1589
5.9587973	99.2119
5.951955813	99.2842
5.945130017	99.3662
5.938319859	99.5019
5.931525286	99.5554
5.924746243	99.5622
5.917982678	99.6047
5.911234538	99.6279
5.904501769	99.6472
5.89778432	99.7744
5.891082139	99.8025
5.884395172	99.8259
5.87772337	99.9023
5.871066679	99.8669
5.864428488	99.8913
5.85780186	99.9128
5.851190191	99.9499
5.84459343	99.9285
5.838011527	99.9363
5.831444431	100.0056
5.824892094	100.0588
5.818354465	100.0488
5.811831494	99.9856
5.805323133	99.9836
5.798829332	99.987
5.792350043	99.9658
5.785885217	99.9607
5.779434806	99.9783
5.772998761	100
5.766577035	100.0769
5.760169579	100.0554
5.753776347	100.031
5.747397291	100.0583
5.741032364	100.0984
5.734681519	100.0788
5.728344709	100.0683
5.722021888	100.0986
5.715713009	100.1238
5.709421287	100.112
5.703140149	100.1013
5.696872816	100.1142
5.690619242	100.1279
5.684379382	100.123
5.678153192	100.1277
5.671940626	100.1311
5.66574164	100.115
5.659556189	100.1162
5.653384229	100.1296
5.647225716	100.1208
5.641080605	100.1621
5.634948854	100.1472
5.628830419	100.1189
5.622725256	100.1299
5.616633323	100.1413
5.610557723	100.1494
5.604492113	100.1296
5.598439603	100.113
5.592400152	100.0918
5.586373717	100.0974
5.580360257	100.1182
5.574359729	100.1218
5.568372092	100.1189
5.562397304	100.1523
5.556435324	100.1755
5.550486112	100.1843
5.544549625	100.2041
5.538625823	100.2087
5.532714665	100.2012
5.526816112	100.1882
5.520930122	100.198
5.515056656	100.2117
5.509195674	100.2126
5.503347136	100.2256
5.497511002	100.2175
5.491687233	100.2119
5.48587579	100.2217
5.480076633	100.2197
5.474289725	100.2126
5.468518015	100.2363
5.462755479	100.2764
5.457005076	100.2541
5.451266765	100.2353
5.445540511	100.2312
5.439826274	100.2285
5.434124016	100.198
5.428433701	100.1767
5.422755291	100.1882
5.417088748	100.1785
5.411434035	100.155
5.405791116	100.1101
5.400159953	100.1094
5.394540509	100.1299
5.388932749	100.1045
5.383336635	100.0515
5.377752132	100.0286
5.372179203	100.0234
5.366617813	100.0124
5.361067925	99.9822
5.355529504	100.0022
5.350002515	100.0029
5.344486921	99.9912
5.338982689	99.9746
5.333492627	99.9863
5.328011006	99.9704
5.32254064	99.9529
5.317081497	99.9316
5.31163354	99.8769
5.306196736	99.8887
5.30077105	99.8965
5.295356449	99.8801
5.289952898	99.874
5.284560364	99.8703
5.279178813	99.8513
5.273808212	99.8223
5.268448526	99.8183
5.263099724	99.8308
5.257761771	99.8376
5.252434635	99.8223
5.247118283	99.8083
5.241812682	99.7783
5.236517799	99.781
5.231233603	99.7859
5.225960061	99.7764
5.220697141	99.7549
5.21544481	99.7497
5.210203036	99.7449
5.204974498	99.7263
5.19975374	99.738
5.194543444	99.7556
5.189343579	99.7451
5.184154115	99.7517
5.178975019	99.7422
5.173806261	99.7253
5.168647809	99.7117
5.163499634	99.7266
5.158361704	99.7341
5.153233989	99.737
5.148116459	99.7488
5.143009082	99.7353
5.137911829	99.7344
5.13282467	99.7285
5.127747575	99.7041
5.122680514	99.6863
5.117623458	99.6912
5.112576376	99.706
5.107539239	99.708
5.102512018	99.7041
5.097494683	99.6745
5.092487206	99.6785
5.087489558	99.6775
5.082504292	99.7019
5.077526209	99.6931
5.072557868	99.6865
5.06759924	99.6875
5.062650297	99.6836
5.057711011	99.678
5.052781354	99.6941
5.047861297	99.698
5.042950812	99.6745
5.038049872	99.6579
5.033158448	99.6511
5.028276513	99.6526
5.023404039	99.6282
5.018541	99.655
5.013687367	99.6599
5.008843113	99.6345
5.004010715	99.6125
4.999185133	99.6321
4.994368849	99.6345
4.989561837	99.6164
4.984764069	99.6394
4.979975518	99.6765
4.97519616	99.6833
4.970425966	99.6799
4.96566491	99.6609
4.960912967	99.6511
4.95617011	99.6545
4.951436313	99.6794
4.94671155	99.678
4.941995795	99.6555
4.937289023	99.6453
4.932591209	99.6306
4.927902325	99.6008
4.923222347	99.5823
4.918551251	99.6096
4.913889009	99.6228
4.909235598	99.636
4.904590991	99.6687
4.899955165	99.6453
4.895328095	99.6306
4.890712146	99.6379
4.886102507	99.6169
4.88150155	99.595
4.876909249	99.5803
4.87232558	99.5803
4.86775052	99.5554
4.863184043	99.5525
4.858626126	99.551
4.854076745	99.5315
4.849535875	99.5417
4.845003493	99.5471
4.840479575	99.5588
4.835964098	99.5188
4.831457037	99.5295
4.826958369	99.529
4.822468072	99.5256
4.81798612	99.5017
4.813512492	99.512
4.809047164	99.512
4.804590113	99.4719
4.800141316	99.4626
4.79570075	99.4914
4.791268392	99.49
4.78684422	99.4807
4.782430498	99.4812
4.778022625	99.4529
4.773622869	99.4553
4.769231209	99.4436
4.764847623	99.4275
4.760472086	99.4319
4.756104579	99.4348
4.751745078	99.4402
4.747393562	99.447
4.743050009	99.4704
4.738714396	99.4787
4.734386703	99.4319
4.730066907	99.3933
4.725754987	99.3611
4.721450921	99.3523
4.717154688	99.3621
4.712866266	99.3674
4.708585635	99.3494
4.704312773	99.3513
4.700047658	99.3655
4.695790271	99.3494
4.691540589	99.3425
4.687298593	99.3254
4.68306426	99.3386
4.67883976	99.3254
4.67462069	99.2883
4.670409221	99.2429
4.666205334	99.2327
4.662009009	99.2405
4.657820224	99.2346
4.65363896	99.2585
4.649465195	99.2688
4.645298911	99.2366
4.641140087	99.2366
4.636988702	99.2244
4.632844738	99.1902
4.628708174	99.2087
4.62457899	99.2253
4.620457167	99.2248
4.616342684	99.2204
4.612235523	99.1921
4.608135664	99.1531
4.604043086	99.1623
4.599957772	99.1663
4.595879702	99.1477
4.591808856	99.1062
4.587745215	99.0959
4.58368876	99.0945
4.57964157	99.0681
4.575599426	99.0691
4.571564412	99.0745
4.567536508	99.0735
4.563515696	99.0452
4.559501956	99.0408
4.555495271	99.0251
4.551495621	99.0041
4.547502989	98.9983
4.543517355	99.0124
4.539538701	98.9841
4.535567009	98.967
4.531602261	98.9651
4.527644439	98.9573
4.523693523	98.9436
4.519749497	98.9451
4.515814382	98.9187
4.511884077	98.8689
4.507960608	98.8611
4.504043956	98.8689
4.500134104	98.8308
4.496231034	98.822
4.492334729	98.8152
4.488445171	98.8245
4.484562343	98.8132
4.480686226	98.7537
4.476816804	98.7073
4.47295406	98.7048
4.469097975	98.6955
4.465248534	98.6809
4.461405718	98.6501
4.45756951	98.6428
4.453739894	98.6335
4.449916853	98.6057
4.44610037	98.5945
4.442290427	98.6223
4.438487009	98.6247
4.434690097	98.6081
4.430899676	98.6345
4.42711573	98.6316
4.423340197	98.6267
4.419569145	98.6086
4.415804518	98.5662
4.412046298	98.5198
4.408294471	98.5471
4.404549018	98.5574
4.400809925	98.5486
4.397077175	98.5154
4.393350752	98.5061
4.389630639	98.5037
4.385916821	98.4734
4.382209282	98.4534
4.378508006	98.4519
4.374812977	98.4441
4.371124179	98.4431
4.367441596	98.4392
4.363765214	98.4514
4.360095015	98.4558
4.356430985	98.4172
4.352773108	98.3699
4.349121369	98.3484
4.345475751	98.3313
4.341836241	98.3396
4.338202821	98.3225
4.334577357	98.302
4.330956072	98.2878
4.327340832	98.2717
4.323731623	98.2712
4.320128429	98.2815
4.316531235	98.2893
4.312940028	98.2639
4.30935479	98.2737
4.305775509	98.2556
4.302202168	98.2068
4.298634754	98.241
4.29507325	98.2307
4.291517644	98.1594
4.287967919	98.1423
4.284424062	98.1677
4.280886058	98.178
4.277353892	98.1726
4.27382755	98.178
4.270307018	98.1628
4.266792281	98.133
4.263283325	98.0964
4.259780136	98.1155
4.256282699	98.1247
4.252791	98.0832
4.249306832	98.0701
4.245826565	98.0808
4.242351994	98.0662
4.238883105	98.0881
4.235419885	98.0798
4.231962319	98.0764
4.228510393	98.0413
4.225064094	98.0496
4.221623408	98.0359
4.218188322	97.99
4.214758821	97.9841
4.211334892	97.9714
4.207916522	97.9431
4.204503696	97.9377
4.201096402	97.9343
4.197694626	97.9241
4.194300114	97.8948
4.190909331	97.9148
4.187524026	97.905
4.184144186	97.8733
4.180769797	97.8367
4.177400846	97.8122
4.174037321	97.823
4.170679208	97.8332
4.167326493	97.8303
4.163979165	97.8025
4.16063721	97.7712
4.157300615	97.7673
4.153969367	97.74
4.150643454	97.6736
4.147322862	97.6941
4.144007579	97.7224
4.140697592	97.7068
4.137392888	97.698
4.134093455	97.6794
4.130799281	97.6189
4.127510352	97.5979
4.124226656	97.5901
4.120948181	97.5681
4.117674914	97.553
4.114408535	97.5671
4.111145645	97.5671
4.107887925	97.5554
4.104635365	97.5437
4.101387951	97.5466
4.098145671	97.5388
4.094908514	97.5022
4.091676466	97.491
4.088449517	97.4861
4.085227653	97.4744
4.082010864	97.4802
4.078799136	97.4587
4.075592459	97.4412
4.072390819	97.4084
4.069194206	97.3943
4.066002607	97.4089
4.062816011	97.4402
4.059634406	97.4382
4.056457779	97.4573
4.053286121	97.4363
4.050119418	97.3992
4.046957659	97.3796
4.043800833	97.3689
4.040648928	97.2991
4.037503563	97.3088
4.034361463	97.385
4.031224251	97.3699
4.028091913	97.3362
4.024964439	97.2947
4.021841819	97.2654
4.018724039	97.2756
4.01561109	97.2839
4.012502959	97.2224
4.009399637	97.2136
4.00630111	97.2117
4.00320737	97.2048
4.000118404	97.1824
3.997034201	97.1428
3.99395475	97.1062
3.990880041	97.0803
3.987810062	97.0984
3.984744803	97.1062
3.981684252	97.0525
3.9786284	97.0447
3.975577234	97.0198
3.972530744	97.012
3.96948892	96.9885
3.966451751	96.9685
3.963420797	96.9475
3.960392903	96.9246
3.957369631	96.947
3.954350972	96.948
3.951336915	96.928
3.948327449	96.864
3.945322564	96.8914
3.942322249	96.8767
3.939326493	96.8552
3.936335288	96.8811
3.933348621	96.9045
3.930366483	96.8923
3.927388864	96.8699
3.924415753	96.8752
3.921447139	96.9123
3.918483014	96.9163
3.915523366	96.8884
3.912568186	96.8616
3.909617463	96.8367
3.906671188	96.8093
3.90372935	96.7761
3.900791939	96.7776
3.897858945	96.7776
3.894930359	96.7556
3.892007684	96.741
3.889087881	96.7288
3.886172454	96.6897
3.883261396	96.6838
3.880354695	96.6467
3.877452343	96.5964
3.874554329	96.5818
3.871660644	96.5691
3.868771278	96.574
3.865886222	96.5603
3.863005465	96.571
3.860128998	96.5764
3.857256812	96.6135
3.854388896	96.6394
3.851525243	96.6472
3.848665841	96.6467
3.845812161	96.6077
3.842961232	96.5749
3.840114528	96.5535
3.837272037	96.5471
3.834433752	96.5085
3.831599662	96.5139
3.828769759	96.5203
3.825944033	96.4861
3.823122474	96.4534
3.820305074	96.449
3.817491824	96.4084
3.814682714	96.3542
3.811877735	96.3948
3.809076878	96.407
3.806280134	96.4045
3.803487494	96.4187
3.800698949	96.3987
3.797914489	96.3523
3.795134107	96.303
3.792357792	96.2908
3.789585537	96.2659
3.786817332	96.2585
3.784053167	96.2888
3.781293036	96.2737
3.778538356	96.2385
3.77578626	96.2253
3.773038171	96.2327
3.770294079	96.2244
3.767553976	96.2273
3.764817852	96.198
3.7620857	96.1707
3.759357511	96.1501
3.756633275	96.1272
3.753912985	96.1252
3.751196632	96.115
3.748484207	96.1189
3.745775701	96.1208
3.743071107	96.1169
3.740370416	96.0979
3.73767362	96.0359
3.734980709	95.9729
3.732291676	95.9177
3.729606512	95.928
3.726925208	95.9202
3.724247758	95.9158
3.721574151	95.9177
3.718904381	95.9006
3.716238438	95.9104
3.713577694	95.8669
3.71091938	95.8093
3.708264869	95.7966
3.705614154	95.7527
3.702967225	95.7361
3.700324074	95.783
3.697684695	95.7991
3.695049078	95.7468
3.692417215	95.739
3.689789099	95.7385
3.687164722	95.7087
3.684544075	95.7327
3.68192715	95.7263
3.67931394	95.7429
3.676704437	95.7253
3.674098633	95.6931
3.67149652	95.635
3.66889809	95.6121
3.666303336	95.6213
3.663712249	95.6306
3.661124822	95.6306
3.658541047	95.6135
3.655960916	95.5842
3.653384422	95.5706
3.65081289	95.5486
3.648243644	95.573
3.645678012	95.5896
3.643115986	95.5627
3.640557559	95.5271
3.638002722	95.5037
3.635451469	95.5056
3.632903791	95.4675
3.630359682	95.4138
3.627819133	95.4001
3.625282138	95.4358
3.622748688	95.4275
3.620218777	95.3787
3.617692397	95.342
3.615169541	95.3225
3.6126502	95.3147
3.610135673	95.2678
3.607623341	95.2483
3.605114504	95.2463
3.602609154	95.2214
3.600107283	95.2268
3.597608885	95.2268
3.595113953	95.2068
3.592622478	95.2092
3.590134454	95.2107
3.587649874	95.1697
3.585168731	95.1331
3.582691017	95.1213
3.580216725	95.0745
3.577745848	95.0701
3.57527838	95.1287
3.572814313	95.137
3.57035364	95.1316
3.567896354	95.0901
3.565442448	95.0686
3.562991916	95.0491
3.560544749	95.0183
3.558100942	94.9998
3.555660487	94.9534
3.553223378	94.9631
3.550790868	95.0076
3.548360427	95.0115
3.545933311	94.9949
3.543509513	94.9768
3.541089027	94.947
3.538671844	94.9294
3.53625796	94.9104
3.533847367	94.9314
3.531440058	94.9319
3.529036026	94.9236
3.526635266	94.8943
3.524237769	94.9006
3.52184353	94.9221
3.519452542	94.9124
3.517064798	94.8557
3.514680292	94.7874
3.512299017	94.8689
3.509920967	94.9124
3.507546135	94.9045
3.505174514	94.9373
3.502806098	94.9514
3.500440881	94.9568
3.498078855	94.9626
3.495720015	94.9182
3.493365575	94.8552
3.491013085	94.8123
3.488663762	94.8616
3.486317598	94.7996
3.483974588	94.7507
3.481634725	94.7639
3.479298003	94.7205
3.476964415	94.678
3.474633956	94.6506
3.472306619	94.6077
3.469982397	94.5681
3.467661284	94.553
3.465343275	94.5823
3.463028363	94.5549
3.460716541	94.5491
3.458407804	94.5686
3.456102146	94.5593
3.453799559	94.5569
3.451500039	94.5623
3.449203579	94.6306
3.446910172	94.5837
3.444619814	94.5701
3.442332497	94.5789
3.440048216	94.5452
3.437768146	94.5896
3.435489916	94.6091
3.433214704	94.6433
3.430942504	94.6677
3.428673309	94.6838
3.426407114	94.7209
3.424143913	94.717
3.421883699	94.7561
3.419626467	94.7419
3.417372212	94.7131
3.415120926	94.6643
3.412872605	94.6267
3.410627242	94.5354
3.408384831	94.4514
3.406145367	94.3557
3.403908845	94.2835
3.401675257	94.2693
3.399444599	94.2419
3.397216864	94.2092
3.394992047	94.2053
3.392770143	94.1897
3.390551144	94.135
3.388335047	94.0535
3.386121844	94.0413
3.383912676	94.0154
3.381705245	93.9646
3.379500692	93.9241
3.377299012	93.9182
3.375100198	93.908
3.372904246	93.9021
3.370711149	93.8826
3.368520903	93.8303
3.366333501	93.7712
3.364148938	93.7405
3.361967208	93.6794
3.359788306	93.6209
3.357612227	93.5818
3.355438965	93.5857
3.353268515	93.5564
3.35110087	93.5369
3.348937148	93.5291
3.346775098	93.5134
3.344615837	93.5046
3.342459362	93.4885
3.340305665	93.5173
3.338154741	93.5252
3.336006587	93.5134
3.333861195	93.4924
3.33171856	93.4685
3.329578678	93.4158
3.327441544	93.3713
3.32530715	93.2732
3.323175494	93.2073
3.321046568	93.2268
3.318920368	93.2068
3.31679689	93.1736
3.314676126	93.1663
3.312558073	93.238
3.310442725	93.2205
3.308330077	93.2034
3.306220124	93.1819
3.304112861	93.1326
3.302008281	93.1072
3.299906382	93.0916
3.297808244	93.0667
3.295711686	93.0061
3.293617792	93.0178
3.291526557	93.0081
3.289437976	92.9744
3.287352045	92.9451
3.285268756	92.8884
3.283188107	92.8928
3.281110091	92.9475
3.279034705	92.9319
3.276961942	92.9041
3.274891798	92.8767
3.272824267	92.8889
3.270759346	92.9241
3.268697029	92.8577
3.26663731	92.8064
3.264580186	92.8152
3.262525652	92.8298
3.260473701	92.742
3.25842433	92.7078
3.256377534	92.6892
3.254333308	92.6609
3.252291646	92.6043
3.250252545	92.574
3.248217054	92.5144
3.246183057	92.53
3.244151606	92.5515
3.242122696	92.5418
3.240096322	92.5681
3.238072479	92.6091
3.236051163	92.6072
3.234032369	92.5242
3.232016093	92.4812
3.230002329	92.4558
3.227991073	92.3992
3.22598232	92.3113
3.223976065	92.2927
3.221972305	92.3318
3.219971033	92.322
3.217972246	92.3416
3.215975939	92.3865
3.213982108	92.3494
3.211990747	92.3347
3.210001852	92.3318
3.208015419	92.2957
3.206031443	92.2771
3.204049919	92.2283
3.202070843	92.2078
3.200095235	92.2156
3.19812104	92.155
3.196149279	92.155
3.194179949	92.0974
3.192213043	92.1267
3.190248559	92.1101
3.18828649	92.0691
3.186326834	92.0779
3.184369586	92.074
3.18241474	91.99
3.180462293	91.992
3.17851224	92.0193
3.176564577	92.0066
3.1746193	91.8816
3.172676403	91.8806
3.170735883	91.8748
3.168797736	91.8865
3.166861956	91.8836
3.164928541	91.9148
3.162997484	91.8591
3.161068783	91.7839
3.159142432	91.7703
3.157218427	91.6892
3.155296765	91.5857
3.153378435	91.5877
3.151461443	91.6013
3.14954678	91.5535
3.147634443	91.5193
3.145724426	91.531
3.143816726	91.4548
3.141911338	91.4656
3.140008258	91.4441
3.138107483	91.4382
3.136209007	91.4353
3.134312827	91.4343
3.132418938	91.4324
3.130527337	91.4451
3.128638019	91.4607
3.126750981	91.4148
3.124866217	91.3875
3.122984699	91.324
3.121104471	91.2732
3.119226507	91.2576
3.1173508	91.2615
3.115477349	91.2742
3.113606148	91.3259
3.111737193	91.2947
3.10987048	91.2927
3.108006006	91.3279
3.106143766	91.2537
3.104283756	91.2644
3.102425973	91.2595
3.100570412	91.2293
3.098717069	91.2429
3.096865941	91.2185
3.095017023	91.1882
3.093170311	91.1648
3.091325802	91.1541
3.089483491	91.1677
3.087643375	91.1814
3.085805449	91.1599
3.08396971	91.1336
3.082136155	91.1921
3.080304778	91.1658
3.078476524	91.1853
3.076649492	91.1951
3.074824627	91.1755
3.073001926	91.1619
3.071181385	91.113
3.069363	91.0613
3.067546766	90.9783
3.065732681	90.9636
3.06392074	90.9666
3.06211094	91.0076
3.060303276	91.075
3.058497745	91.0437
3.056694344	91.0388
3.054893068	91.0593
3.053093914	91.0213
3.051296877	91.0115
3.049501955	91.0213
3.047709144	91.0359
3.045918439	91.0086
3.044129837	90.9314
3.042343335	90.9187
3.040558928	90.8904
3.038776613	90.8123
3.036996386	90.7713
3.035219166	90.7517
3.033443104	90.7312
3.031669119	90.7293
3.029897208	90.6892
3.028127367	90.6375
3.026359592	90.6658
3.02459388	90.6765
3.022830228	90.6052
3.021068631	90.5173
3.019309085	90.4314
3.017551589	90.4412
3.015796137	90.4099
3.014042726	90.3504
3.012291354	90.3533
3.010542015	90.2976
3.008794707	90.2693
3.007049426	90.2556
3.005306169	90.2673
3.003564931	90.2107
3.00182571	90.1756
3.000088503	90.1736
2.998353304	90.1023
2.996620112	90.1111
2.994888923	90.0974
2.993160628	90.1257
2.991433432	90.0701
2.989708228	90.0642
2.987985013	90.1033
2.986263784	90.114
2.984544536	90.0789
2.982827267	90.0506
2.981111973	89.9568
2.97939865	89.9138
2.977687296	89.822
2.975977906	89.7752
2.974270478	89.7498
2.972565009	89.6873
2.970861493	89.5838
2.96915993	89.4822
2.967460314	89.4343
2.965763522	89.3767
2.964067792	89.3006
2.962373999	89.2576
2.960682141	89.2302
2.958992215	89.1531
2.957304216	89.0672
2.955618142	89.0632
2.95393399	89.032
2.952251756	88.9968
2.950571437	88.9509
2.94889303	88.9588
2.947216531	88.9226
2.945541937	88.95
2.943869245	88.9109
2.942198452	88.8826
2.940529554	88.8757
2.938862549	88.8826
2.937197432	88.864
2.935534201	88.8367
2.933872853	88.7752
2.932213384	88.7351
2.930555792	88.7117
2.928900072	88.7263
2.927246222	88.6599
2.925595095	88.5974
2.923944975	88.5603
2.922296715	88.5506
2.920650312	88.492
2.919005763	88.406
2.917363066	88.3865
2.915722216	88.408
2.91408321	88.3787
2.912446047	88.4031
2.910810722	88.4002
2.909177232	88.4334
2.907545575	88.4109
2.905915747	88.4373
2.904287745	88.4295
2.902661566	88.3826
2.901037208	88.4226
2.899414666	88.4236
2.897793938	88.4295
2.896175022	88.4578
2.894557913	88.5388
2.892942609	88.6072
2.891329106	88.6716
2.889717403	88.6873
2.888107495	88.7224
2.886500214	88.7244
2.884893888	88.7615
2.883289349	88.7849
2.881686594	88.8064
2.880085619	88.742
2.878486423	88.7537
2.876889001	88.7088
2.875293352	88.7068
2.873699471	88.7634
2.872107357	88.7849
2.870517006	88.8435
2.868928415	88.8601
2.867341582	88.8562
2.865756502	88.949
2.864173175	88.9851
2.862591596	89.0017
2.861011762	89.0916
2.859433672	89.1453
2.857857321	89.1882
2.856282708	89.2224
2.854709829	89.2283
2.853138681	89.2537
2.851569261	89.2537
2.850001568	89.282
2.848436408	89.3015
2.846872156	89.3084
2.845309621	89.3172
2.8437488	89.3162
2.842189691	89.3484
2.840632291	89.325
2.839076596	89.3103
2.837522604	89.3611
2.835970313	89.3162
2.834419719	89.2615
2.83287082	89.2156
2.831323613	89.2009
2.829778094	89.157
2.828234263	89.2088
2.826692114	89.1873
2.825151647	89.1804
2.823612858	89.2273
2.822075744	89.2146
2.820540303	89.2146
2.819006531	89.2068
2.817474427	89.1716
2.815943987	89.1521
2.81441521	89.1716
2.812888091	89.1228
2.811363418	89.1287
2.809839609	89.0701
2.80831745	89.0281
2.806796939	89.0115
2.805278075	89.0427
2.803760853	89.1218
2.802245271	89.158
2.800731327	89.1677
2.799219018	89.2586
2.797708341	89.2537
2.796199294	89.2459
2.794691874	89.2634
2.793186078	89.3172
2.791681905	89.3601
2.79017935	89.3367
2.788678412	89.367
2.787179865	89.4177
2.785682151	89.3709
2.784186046	89.3084
2.782691547	89.3611
2.781198652	89.2888
2.779707358	89.2283
2.778217662	89.2537
2.776729562	89.2791
2.775243056	89.2849
2.77375814	89.2361
2.772274812	89.3367
2.77079307	89.3679
2.769312911	89.3523
2.767834333	89.3142
2.766357333	89.3484
2.764881908	89.3875
2.763408056	89.3709
2.761935774	89.3455
2.760465061	89.3601
2.758995913	89.4295
2.757528328	89.5427
2.756062304	89.5818
2.754597837	89.6052
2.753134926	89.6248
2.751674325	89.6677
2.750214517	89.6951
2.748756257	89.6482
2.747299542	89.6873
2.74584437	89.6423
2.74439074	89.5896
2.742938647	89.6306
2.741488091	89.6765
2.740039067	89.8181
2.738591575	89.864
2.737145611	89.7664
2.735701174	89.7888
2.73425826	89.8826
2.732816867	89.864
2.731376994	89.8826
2.729938636	89.9461
2.728501793	89.9724
2.727066462	90.032
2.72563264	90.0672
2.724200325	90.0935
2.722769514	90.0906
2.721340206	90.0203
2.719912397	90.0427
2.718486086	90.0906
2.717062008	90.072
2.715638684	90.0476
2.714216851	90.0086
2.712796505	89.9998
2.711377646	90.0047
2.709960269	90.0232
2.708544374	89.989
2.707129958	89.9959
2.705717018	89.9099
2.704305552	89.9763
2.702895558	90.0271
2.701487034	90.0632
2.700079976	90.0857
2.698674384	90.0466
2.697270255	90.0623
2.695867585	90.0789
2.694466374	90.1843
2.693066619	90.1658
2.691668318	90.1687
2.690271467	90.114
2.688876066	90.1023
2.687482111	90.1218
2.686089602	90.1599
2.684698534	90.2
2.683309626	90.2302
2.681921436	90.1482
2.680534681	90.0935
2.679149359	90.0857
2.677765469	90.0974
2.676383008	90.0857
2.675001973	90.0047
2.673622363	89.9695
2.672244175	90.0642
2.670867407	90.157
2.669492057	90.1297
2.668118123	90.0427
2.666745602	90.072
2.665374493	90.0711
2.664004793	90.0506
2.6626365	89.9881
2.66127032	89.9461
2.659904834	89.9187
2.658540748	89.9568
2.657178061	89.8357
2.65581677	89.8601
2.654456873	89.8679
2.653098368	89.8015
2.651741253	89.7859
2.650385525	89.8054
2.649031183	89.8679
2.647678224	89.8377
2.646326647	89.8552
2.644976449	89.9334
2.643627628	89.9138
2.642280182	89.9685
2.640934109	89.906
2.639589407	89.9353
2.638246073	89.867
2.636904106	89.867
2.635563503	89.8709
2.634224263	89.7752
2.632886383	89.7302
2.631549862	89.6638
2.630214697	89.6404
2.628881577	89.6795
2.627549117	89.7283
2.626218007	89.7107
2.624888245	89.7244
2.62355983	89.8318
2.622232758	89.8416
2.620907028	89.8103
2.619582638	89.7302
2.618259585	89.6912
2.616937869	89.7322
2.615617486	89.699
2.614298435	89.6677
2.612980713	89.7556
2.61166432	89.7517
2.610349252	89.7478
2.609035507	89.6443
2.607723085	89.6345
2.606411982	89.5838
2.605102197	89.5877
2.603793727	89.5095
2.602486572	89.4256
2.601180728	89.5173
2.599876194	89.5427
2.598572968	89.615
2.597271722	89.5506
2.595971105	89.5037
2.59467179	89.5193
2.593373774	89.5506
2.592077057	89.531
2.590781636	89.6267
2.589487509	89.6658
2.588194675	89.7498
2.58690313	89.7302
2.585612874	89.7068
2.584323905	89.7107
2.58303622	89.6834
2.581749817	89.6365
2.580464695	89.5701
2.579180852	89.5994
2.577898286	89.5759
2.576616995	89.4607
2.575336976	89.4138
2.574058229	89.3689
2.572780751	89.4002
2.571504541	89.3591
2.570229596	89.3084
2.568955915	89.1795
2.567683495	89.1756
2.566412994	89.2127
2.565143091	89.1873
2.563874445	89.1775
2.562607053	89.2029
2.561340913	89.197
2.560076024	89.2048
2.558812384	89.1736
2.55754999	89.0916
2.556288841	89.0974
2.555028936	89.1404
2.553770272	89.0896
2.552512847	89.0076
2.55125666	88.9939
2.550001709	88.9841
2.548747991	88.9998
2.547495506	89.0076
2.546244252	88.9549
2.544994225	89.0584
2.543745426	89.1697
2.542497852	89.1892
2.5412515	89.2654
2.54000637	89.2283
2.53876246	89.2888
2.537519767	89.2966
2.536278934	89.2595
2.535038671	89.1423
2.53379962	89.1502
2.53256178	89.1033
2.531325149	89.0115
2.530089725	89.0193
2.528855506	88.908
2.52762249	88.8943
2.526390677	88.9138
2.525160064	88.8845
2.523930648	88.8006
2.52270243	88.8591
2.521475406	88.8474
2.520249575	88.6814
2.519024936	88.6912
2.517801486	88.7693
2.516579857	88.8552
2.515358781	88.8982
2.514138889	88.9256
2.512920179	88.9412
2.511702651	88.9373
2.510486301	88.9607
2.50927113	88.9841
2.508057134	88.8826
2.506844312	89.0545
2.505632662	89.031
2.504422183	88.8357
2.503212874	88.7439
2.502004731	88.6873
2.500797754	88.6951
2.499591942	88.7361
2.498387291	88.908
2.497183801	88.8982
2.49598147	88.7517
2.494780296	88.783
2.493580278	88.8142
2.492381413	88.6912
2.491183701	88.5642
2.489987139	88.6131
2.488791726	88.6209
2.48759808	88.6599
2.486404959	88.783
2.485212983	88.7107
2.484022149	88.6209
2.482832455	88.7185
2.4816439	88.6834
2.480456483	88.6756
2.479270202	88.7205
2.478085055	88.6326
2.47690104	88.6189
2.475718156	88.6267
2.474536402	88.617
2.473355775	88.5037
2.472176274	88.492
2.470997898	88.492
2.469820644	88.6326
2.468644512	88.6209
2.467469499	88.5037
2.466295604	88.6248
2.465122826	88.7498
2.463951163	88.5037
2.462780612	88.3865
2.461611174	88.3474
2.460442845	88.3357
2.45927623	88.3142
2.458110116	88.3299
2.456945108	88.3904
2.455781204	88.4939
2.454618401	88.5466
2.4534567	88.697
2.452296097	88.8045
2.451136592	88.7205
2.449978183	88.5642
2.448820868	88.5076
2.447664646	88.447
2.446509516	88.3435
2.445355475	88.4177
2.444202523	88.2107
2.443050657	88.1287
2.441899876	88.1814
2.440750179	88.156
2.439601564	88.1482
2.43845403	88.242
2.437307575	88.2908
2.436162197	88.2361
2.435017895	88.1404
2.433874668	88.1521
2.432732513	88.1502
2.431592022	88.1424
2.430452008	88.2459
2.429313063	88.0252
2.428175185	88.0623
2.427038372	88.0896
2.425902624	88.1443
2.424767938	88.1814
2.423634312	88.1209
2.422501747	88.1052
2.421370239	88.1795
2.420239788	88.1091
2.419110392	87.9881
2.417982049	87.8709
2.416854758	87.783
2.415728518	87.8552
2.414603328	87.867
2.413479185	87.8904
2.412356088	88.0115
2.411234036	88.1345
2.410113027	88.2537
2.40899306	88.1326
2.407874134	88.1677
2.406756246	88.2283
2.405639396	88.2263
2.40452416	88.1951
2.40340938	88.0857
2.402295634	88.158
2.401182919	88.1091
2.400071234	87.9763
2.398960578	87.8904
2.39785095	87.9763
2.396742348	87.9373
2.39563477	87.9529
2.394528216	87.908
2.393422683	87.906
2.392318171	87.8377
2.391214677	87.9314
2.390112201	87.8377
2.389010742	87.7927
2.387910297	87.8826
2.386811435	87.7986
2.385713014	87.7263
2.384615605	87.5974
2.383519204	87.5506
2.382423811	87.4861
2.381329425	87.4861
2.380236043	87.5486
2.379143665	87.6209
2.37805229	87.6677
2.376961915	87.7927
2.375872539	87.7185
2.374784162	87.6443
2.373696781	87.7654
2.372610396	87.8299
2.371525004	87.7576
2.370440606	87.7283
2.369357198	87.742
2.368274781	87.7439
2.367193351	87.7049
2.366112909	87.656
2.365033453	87.7107
2.363954982	87.658
2.362877493	87.5799
2.361800987	87.6013
2.360726018	87.6326
2.35965147	87.5955
2.3585779	87.4861
2.357505307	87.5252
2.356433688	87.3904
2.355363044	87.4627
2.354293372	87.408
2.353224671	87.4021
2.35215694	87.2752
2.351090177	87.281
2.350024382	87.3435
2.348959552	87.2888
2.347895687	87.4002
2.346832785	87.2732
2.345770845	87.3279
2.344709866	87.4861
2.343649846	87.4998
2.342590784	87.4607
2.341532678	87.3924
2.340475528	87.3924
2.339419333	87.4646
2.33836409	87.3123
2.337309798	87.2283
2.336256457	87.3299
2.335204611	87.3201
2.334153166	87.3826
2.333102667	87.2752
2.332053114	87.4314
2.331004504	87.4217
2.329956838	87.4138
2.328910112	87.197
2.327864326	87.2595
2.32681948	87.2595
2.325775571	87.3142
2.324732598	87.322
2.32369056	87.3455
2.322649456	87.3689
2.321609284	87.158
2.320570043	86.9939
2.319531733	86.9783
2.318494351	86.9158
2.317457897	86.7986
2.316422369	86.9783
2.315387766	87.0232
2.314354087	87.0408
2.31332133	87.0623
2.312289495	87.1092
2.31125858	87.0154
2.310229117	86.867
2.309200038	86.7888
2.308171875	86.8123
2.307144627	86.9295
2.306118293	87.0232
2.305092872	87.1267
2.304068363	87.0486
2.303044763	86.9412
2.302022073	86.8982
2.301000291	86.8748
2.299979415	87.0408
2.298959445	86.947
2.297940379	86.8377
2.296922216	86.8377
2.295904955	86.9939
2.294888595	87.0935
2.29387366	87.0877
2.292859097	87.0779
2.291845431	87.1814
2.29083266	87.2107
2.289820785	87.1326
2.288809803	86.9138
2.287799713	86.7049
2.286790515	86.6267
2.285782206	86.6892
2.284774786	86.6658
2.283768254	86.5252
2.282762608	86.5174
2.281757848	86.5076
2.280753972	86.6189
2.279750978	86.6658
2.278748867	86.4529
2.277747636	86.617
2.276747284	86.7576
2.275747811	86.5017
2.274749215	86.4217
2.273751494	86.5174
2.272754649	86.658
2.271758677	86.5388
2.270763578	86.4881
2.269769866	86.4881
2.268776508	86.6052
2.267784019	86.617
2.266792398	86.3045
2.265801644	86.3513
2.264811756	86.3982
2.263822732	86.4334
2.262834571	86.5154
2.261847273	86.5271
2.260860836	86.5076
2.259875259	86.6873
2.258890541	86.6482
2.257906681	86.4334
2.256923678	86.4138
2.25594153	86.4412
2.254960236	86.5896
2.253979796	86.5232
2.253000208	86.5037
2.252021471	86.3943
2.251043584	86.3513
2.250066546	86.406
2.249090355	86.3748
2.248115012	86.2185
2.247140514	86.0974
2.246167365	86.199
2.245194554	86.3552
2.244222586	86.2967
2.243251458	86.2693
2.242281171	86.1638
2.241311723	86.2732
2.240343113	86.2185
2.23937534	86.1248
2.238408402	86.0818
2.237442299	86.1443
2.23647703	86.1404
2.235512593	86.2459
2.234548988	86.1443
2.233586213	86.1599
2.232624267	86.1677
2.231663149	86.199
2.230702859	86.1717
2.229743394	86.1482
2.228784755	86.0779
2.22782694	86.1599
2.226869947	86.0662
2.225913777	85.8748
2.224958427	86.0467
2.224003896	85.9451
2.223050679	85.949
2.222097785	85.8826
2.221145707	85.867
2.220194445	85.8787
2.219243997	85.9256
2.218294362	85.7967
2.21734554	85.8357
2.21639753	85.781
2.215450329	85.8357
2.214503938	85.8943
2.213558355	85.8592
2.212613579	85.6638
2.211669609	85.6443
2.210726445	85.6443
2.209784084	85.7029
2.208842527	85.867
2.207901771	86.0076
2.206961817	86.1599
2.206022662	86.1131
2.205084307	86.1873
2.204146749	86.0427
2.203209989	86.117
2.202274024	85.9724
2.201338854	85.8513
2.200404963	85.8279
2.199471379	85.7732
2.198538587	85.7927
2.197606587	85.5857
2.196675376	85.4763
2.195744954	85.4763
2.194815319	85.5349
2.193886472	85.7576
2.192958411	85.7185
2.192031134	85.6756
2.191104641	85.7068
2.190178931	85.5818
2.189254003	85.5271
2.188329856	85.8201
2.187406488	85.8631
2.1864839	85.5623
2.185562567	85.4256
2.184641533	85.4802
2.183721275	85.7498
2.182801792	85.6326
2.181883083	85.3865
2.180965147	85.3787
2.180047983	85.4529
2.17913159	85.4451
2.178215967	85.2029
2.177301113	84.8982
2.176387028	85.1404
2.175473709	85.1951
2.174561157	85.1638
2.17364937	85.2537
2.172738348	85.2146
2.171828089	85.4529
2.170918592	85.4724
2.170009856	85.3748
2.169101881	85.4607
2.168194666	85.531
2.167288209	85.3084
2.166382509	85.1287
2.165477567	85.1756
2.16457338	85.3709
2.163670416	85.2928
2.162767737	85.2303
2.161865811	85.3592
2.160964637	85.2146
2.160064214	85.2732
2.159164542	85.3592
2.158265618	85.3474
2.157367442	85.0701
2.156470014	85.0506
2.155573332	85.3123
2.154677395	85.2615
2.153782203	85.1326
2.152887754	85.1013
2.151994048	85.4685
2.151101084	85.5388
2.150208861	85.3045
2.149317377	85.3865
2.148426632	85.3435
2.147536625	85.2849
2.146647355	85.0701
2.145758822	84.9217
2.144871024	84.8279
2.14398396	84.7537
2.143097629	84.8592
2.14221249	84.8201
2.141327623	84.9217
2.140443487	85.1404
2.139560081	85.1482
2.138677403	85.0076
2.137795454	84.9529
2.136914232	84.9178
2.136033736	84.8006
2.135153965	84.8123
2.134274919	84.8787
2.133396596	84.6795
2.132518995	84.6326
2.131642117	84.781
2.130765959	84.5935
2.129890521	84.492
2.129015803	84.4217
2.128141802	84.4451
2.127268519	84.4998
2.126395952	84.2224
2.125524101	84.2381
2.124652964	84.3592
2.123782542	84.4842
2.122912832	84.6443
2.122043834	84.6795
2.121175997	84.656
2.12030842	84.7068
2.119441553	84.7537
2.118575394	84.5818
2.117709942	84.4763
2.116845198	84.6717
2.115981159	84.7029
2.115117826	84.4568
2.114255197	84.5974
2.113393271	84.4763
2.112532047	84.6092
2.111671525	84.7537
2.110811704	84.6404
2.109952583	84.5701
2.109094161	84.6912
2.108236437	84.7107
2.107379855	84.8748
2.106523524	84.6912
2.105667889	84.5349
2.104812949	84.5974
2.103958703	84.5388
2.103105151	84.3982
2.10225229	84.1287
2.101400121	84.1717
2.100548642	84.1248
2.099697853	84.3006
2.098847754	84.1404
2.097998342	84.0974
2.097149617	84.1873
2.096301579	84.5037
2.095454226	84.5935
2.094607559	84.6131
2.093761575	84.3982
2.092916274	84.4451
2.092071655	84.5349
2.091227718	84.2849
2.090384461	84.2888
2.089541885	84.2342
2.088699987	84.1404
2.087858767	84.1482
2.08701866	84.1013
2.086178794	84.1951
2.085339604	84.0857
2.084501088	84.2381
2.083663247	84.2263
2.082826078	84.2576
2.081989583	84.3435
2.081153758	84.4373
2.080318605	84.1756
2.079484122	84.0037
