Name: Illite/smectite (K,H3O)(Al,Mg,Fe)2(Si,Al)4 O10 [(OH)2,H2O] 
Type:  Mineral
Class:   Silicates
Subclass:   Phyllosilicates (Sheet Silicates) (Mica Group)
Particle Size:  Fine  (Less than 2  Micrometer)
Sample No. :illsmec.1
Owner:  JHU
Wavelength Range:  IR
Origin:  Cameron, Arizona; from Hunt and Salisbury Collection #31 
(purchased from Ward's Natural Science Establishment); 
Description: The sample was a light tan, earthy clay. Called 
"montmorillonite" by Ward's, the bulk sample and the less than 2 
micrometers particle-size separate are pure illite/smectite, with 35% 
illite layers.


Measurement:  Transmission 
First Column:  X
Second Column:  Y  
X Units:  Wavelength (micrometers)
Y Units:  Transmittence (percent)
First X Value:  25.0442
Last X Value:  2.079
Number of X Values:  2287
Additional Information:  none

25.04420302	68.2186
24.9237955	67.2498
24.80454022	66.7655
24.68642074	65.703
24.5694209	63.2967
24.45358465	60.8436
24.3387763	58.9413
24.22504094	56.7342
24.11236361	54.5506
24.00072962	52.41
23.89012454	50.6171
23.78053421	49.4491
23.67194472	48.953
23.56434244	48.703
23.45771395	48.7225
23.35204611	49.4296
23.24732598	50.3007
23.14354087	51.0096
23.04067832	51.5878
22.93872607	52.0799
22.83767211	52.1424
22.7375046	51.9764
22.63821194	51.6815
22.53978272	51.5174
22.44220571	50.8358
22.3454699	49.7987
22.24956446	48.5702
22.15447875	47.3534
22.06020229	46.1581
21.96677306	44.6893
21.87408402	42.8593
21.7821739	40.9569
21.69103293	39.1034
21.60065148	37.3046
21.5110201	35.7108
21.42212949	34.6366
21.33397051	34.121
21.24653416	33.9003
21.15981159	34.4491
21.0737941	35.8612
20.98847313	37.8671
20.90384024	40.0253
20.81988716	42.5507
20.73660571	44.9335
20.65398787	47.3475
20.57202575	49.2264
20.49071156	50.5077
20.41003766	51.3827
20.3299965	51.9784
20.25058069	52.078
20.1717829	51.8378
20.09359597	51.3124
20.01601281	50.5428
19.93906621	49.7401
19.8626695	48.7928
19.78685599	47.7069
19.71161901	46.6171
19.63695203	45.3397
19.56284859	43.871
19.48930232	42.8515
19.41630698	42.0116
19.34385639	41.329
19.27194448	40.8017
19.20056526	40.3642
19.12971284	40.2343
19.05938141	40.3642
18.98956523	40.6366
18.92025868	41.0048
18.85145618	41.6024
18.78315226	42.3358
18.71534153	43.0477
18.64801865	43.9686
18.58117838	45.0165
18.51481556	46.0546
18.44892507	47.1483
18.38350191	48.0975
18.31854111	49.0663
18.25407111	49.9764
18.19002023	50.8007
18.12641726	51.5487
18.06325753	52.3378
18.00053642	52.9803
17.93824937	53.7772
17.8763919	54.5633
17.81495958	55.5204
17.75394803	56.3436
17.69335296	57.1893
17.63317011	58.0907
17.57339529	59.0291
17.51402436	60.0438
17.45505324	61.036
17.39647791	61.9647
17.3382944	62.7938
17.28049878	63.6776
17.2230872	64.5604
17.16605584	65.5975
17.10940093	66.6346
17.05311876	67.617
16.99720566	68.4344
16.94165801	69.2547
16.88647225	70.0369
16.83167317	70.825
16.77720046	71.6678
16.72307919	72.4256
16.66930597	73.0838
16.61587747	73.7068
16.56279037	74.3846
16.51004141	74.9998
16.45762737	75.4764
16.40554507	76.0975
16.35379138	76.5555
16.30236319	76.9109
16.25125744	77.3553
16.20047111	77.7508
16.15000121	78.0467
16.0998448	78.365
16.04999896	78.7703
16.00048641	79.035
15.95125297	79.3523
15.90232158	79.658
15.85368947	79.9998
15.80535391	80.281
15.75731218	80.6209
15.70956162	81.0779
15.6620996	81.4558
15.61492349	81.7625
15.56803074	82.2283
15.52141878	82.5291
15.47508511	82.6375
15.42902725	82.8211
15.38324273	82.99
15.33772913	83.1795
15.29248405	83.1795
15.24750513	83.1267
15.20279002	83.0994
15.1583364	83.1873
15.114142	83.1404
15.07020455	83.2068
15.02652181	83.1629
14.98309158	83.2234
14.93991168	83.2283
14.89700213	83.2654
14.85431629	83.3025
14.81187438	83.2947
14.76967431	83.3133
14.72771402	83.3328
14.68599147	83.3103
14.64450465	83.2498
14.60325156	83.2371
14.56223023	83.2332
14.52143873	83.2469
14.48087511	83.1785
14.44053748	83.159
14.40042395	83.1297
14.36053266	83.2273
14.32086177	83.3914
14.28140946	83.6668
14.24217393	83.8728
14.20315338	84.1092
14.16434607	84.3992
14.12575025	84.6678
14.0873642	84.8279
14.0491862	85.0623
14.01121458	85.2947
13.97344765	85.3279
13.93590321	85.406
13.89854065	85.6209
13.8613779	85.7947
13.82441336	85.8513
13.78764544	85.9724
13.75107258	86.031
13.71469324	86.1428
13.67850587	86.1775
13.64250897	86.201
13.60670103	86.1604
13.57108057	86.1409
13.53564612	86.0257
13.50039624	85.8787
13.46532947	85.7796
13.4304444	85.6136
13.39573962	85.3303
13.36121373	85.201
13.32686536	85.1004
13.29269314	84.9534
13.25869572	85.0335
13.22487175	84.9729
13.19121992	84.826
13.15773892	84.7014
13.12442745	84.6995
13.09130135	84.7068
13.05832501	84.6873
13.02551438	84.5237
12.99286821	84.4475
12.96038529	84.116
12.92806437	83.6277
12.89590426	83.1414
12.86390376	82.6741
12.83206168	82.3616
12.80037684	82.3811
12.7688481	82.8426
12.73747429	83.2752
12.70625427	83.4646
12.67518693	83.4378
12.64427113	83.3069
12.61350579	82.9729
12.58290562	82.4222
12.55243781	81.5691
12.52211719	80.8186
12.4919427	80.4314
12.46191328	80.6697
12.43202789	81.3421
12.40228549	82.0882
12.37268507	82.6429
12.34322561	82.8455
12.31390609	83.0042
12.28472554	82.9822
12.25568296	82.7889
12.22677738	82.8025
12.19800782	82.9202
12.16937334	82.8855
12.14087298	82.8015
12.1125058	82.781
12.08427087	82.7029
12.05616727	82.5686
12.02819409	82.6917
12.00035041	82.637
11.97263534	82.6761
11.945048	82.7264
11.9175875	82.7854
11.8902671	82.824
11.86305761	82.8089
11.83597236	82.7058
11.80901051	82.5237
11.78217122	82.4158
11.75545365	82.0642
11.72885698	81.6678
11.70238038	81.1526
11.67602305	80.5457
11.64978419	79.8128
11.62366299	79.0452
11.59765866	78.2459
11.57177043	77.3987
11.54599752	76.6175
11.52033916	75.9998
11.49479458	75.3694
11.46936304	74.7254
11.44404378	74.1468
11.41883606	73.701
11.39373914	73.3167
11.3687523	73.098
11.34387482	73.0262
11.31910597	72.8602
11.29444505	72.6722
11.26990406	72.4217
11.24545684	72.2816
11.22111545	72.0154
11.19687921	71.4842
11.17274743	70.9417
11.14871946	70.3494
11.12479461	69.5438
11.10097222	68.5662
11.07725165	67.6507
11.05363222	66.6917
11.03011331	65.7679
11.00669427	64.8856
10.98337447	64.182
10.96015327	63.555
10.93703005	63.2547
10.9140042	63.077
10.89107509	62.887
10.86824213	62.8226
10.8455047	62.8768
10.82286221	62.8338
10.80031407	62.7537
10.77785969	62.7498
10.75549848	62.6873
10.73322986	62.5824
10.71106474	62.4452
10.68897956	62.284
10.66698525	62.4461
10.64508128	62.3973
10.62326708	62.202
10.6015421	62.0897
10.5799058	61.8631
10.55835763	61.5672
10.53689705	61.1434
10.51552354	60.5921
10.49423657	59.93
10.4730356	59.1932
10.45192012	58.2757
10.43088962	57.2621
10.40994358	56.161
10.38908149	54.9652
10.36830285	53.6297
10.34760717	52.1942
10.32699394	50.6512
10.30646267	48.9984
10.28601287	47.3612
10.26564407	45.622
10.24535578	43.7816
10.22514752	41.9647
10.20502924	40.1737
10.1849796	38.4555
10.16500858	36.7431
10.14511574	35.1112
10.12530059	33.5517
10.10556271	32.0531
10.08590162	30.6469
10.0663169	29.331
10.04680808	28.08
10.02737473	26.954
10.00801642	25.9189
9.98873271	24.9589
9.969523168	24.1093
9.950387369	23.3222
9.931324888	22.6352
9.912335307	21.9965
9.893427994	21.454
9.874582922	21.0014
9.855809507	20.5981
9.83710734	20.2446
9.818476015	19.9438
9.799915133	19.6958
9.781424293	19.4702
9.7630031	19.311
9.744651161	19.1816
9.726368087	19.1015
9.70815349	19.123
9.690006986	19.186
9.671928196	19.2705
9.653916739	19.4926
9.635972241	19.7968
9.618094328	20.1313
9.600282632	20.5688
9.582536785	21.1074
9.564856422	21.6757
9.547241181	22.309
9.529690704	23.0165
9.512204634	23.7753
9.494782617	24.52
9.477424301	25.3271
9.460138288	26.2138
9.4429063	27.0766
9.425736975	27.9589
9.408629972	28.9169
9.391584952	29.8671
9.374601579	30.8437
9.35767952	31.8925
9.340818443	32.9609
9.324018018	33.9457
9.307277919	34.9086
9.290597822	35.8105
9.273977405	36.5839
9.257416348	37.2831
9.240914333	37.9306
9.224471046	38.4931
9.208086173	38.9833
9.191759404	39.3871
9.17549043	39.7704
9.159278945	40.0858
9.143124645	40.3358
9.127027227	40.5629
9.110986392	40.8319
9.095001842	41.0375
9.079073281	41.2069
9.06320863	41.4032
9.04739114	41.6522
9.031628764	41.9808
9.015921215	42.4052
9.000268208	42.8812
8.984669459	43.3925
8.969124685	44.016
8.953633608	44.6893
8.93819595	45.4159
8.922811435	46.1845
8.907479789	46.9921
8.89220074	47.766
8.876974017	48.5746
8.861799353	49.4188
8.846676481	50.2938
8.831605135	51.0936
8.816585054	51.9569
8.801615977	52.8446
8.786697643	53.7147
8.771829795	54.5555
8.757012178	55.4085
8.742244536	56.2582
8.727526619	57.0609
8.712858175	57.8651
8.69824652	58.6776
8.683676252	59.5301
8.669154714	60.3504
8.654681663	61.1737
8.640256858	61.9339
8.625880055	62.5843
8.611551018	63.0535
8.597269507	63.4618
8.583035287	63.9256
8.568848124	64.4168
8.554707784	64.9906
8.540614036	65.6571
8.52656665	66.3543
8.512565398	67.0711
8.498610052	67.8392
8.484700388	68.5955
8.470836182	69.3548
8.45701721	70.1219
8.443243252	70.8973
8.429514089	71.6209
8.415829502	72.41
8.402189274	73.1934
8.388593191	73.917
8.375041038	74.6563
8.361539594	75.3995
8.348074642	76.0713
8.334652987	76.7234
8.32127442	77.379
8.307938734	78.0274
8.294645723	78.6504
8.281395183	79.2283
8.268186911	79.824
8.255020704	80.3936
8.241896361	80.9295
8.228813685	81.4256
8.215772476	81.9063
8.202772537	82.324
8.189813674	82.7615
8.176895691	83.1551
8.164018395	83.5354
8.151188239	83.8826
8.138391724	84.2227
8.125635323	84.5186
8.11291885	84.7715
8.100242116	85.0645
8.087604937	85.3611
8.075007126	85.6287
8.062448501	85.8445
8.049928879	86.0918
8.037448078	86.2949
8.025005918	86.4822
8.012602221	86.6746
8.000236807	86.8955
7.9879095	87.0537
7.975620124	87.2129
7.963368505	87.3887
7.951154468	87.5515
7.938977841	87.7039
7.926838452	87.8789
7.914736131	88.0222
7.902670708	88.1543
7.890642014	88.2937
7.878649883	88.4065
7.866694148	88.5037
7.854780812	88.6184
7.842897355	88.7471
7.831049799	88.8506
7.819237984	89.0037
7.807461747	89.1358
7.795720929	89.2403
7.784015369	89.3298
7.772344909	89.45
7.760709391	89.5896
7.749108659	89.7127
7.737542556	89.8545
7.726010929	89.9431
7.714513623	89.9844
7.703050485	90.0711
7.691621363	90.2254
7.680226106	90.2998
7.668864563	90.3787
7.657536586	90.4756
7.646242025	90.5703
7.634980733	90.6377
7.623752563	90.7276
7.61255737	90.822
7.601395008	90.8826
7.590265333	90.9658
7.579173946	91.072
7.568109199	91.1719
7.557076711	91.261
7.546076342	91.3731
7.535107952	91.4629
7.524171401	91.5486
7.51326655	91.6492
7.502393263	91.7468
7.491551403	91.7986
7.480740833	91.8984
7.469961418	91.9812
7.459213023	92.0183
7.448495516	92.0437
7.437808762	92.0945
7.42715263	92.1348
7.416526989	92.2019
7.405931707	92.2842
7.395366655	92.3399
7.384831703	92.4229
7.374326724	92.5
7.363851589	92.5642
7.353406171	92.6111
7.342990345	92.6924
7.332603984	92.7678
7.322252325	92.7969
7.311924506	92.8513
7.30162578	92.9216
7.291356025	92.9971
7.281115117	93.0264
7.270902937	93.0554
7.260719363	93.0938
7.250564275	93.1367
7.240437554	93.1953
7.230339081	93.2891
7.220268738	93.3123
7.210226408	93.2712
7.200211974	93.1992
7.19022532	93.1697
7.18026633	93.1961
7.17033489	93.2344
7.160436013	93.2595
7.150559317	93.2712
7.140709829	93.2996
7.130887439	93.323
7.121092034	93.4187
7.111323503	93.5017
7.101581735	93.5693
7.091866622	93.6094
7.082178053	93.6865
7.07251592	93.7488
7.062880115	93.7937
7.053270531	93.8884
7.04368706	93.9412
7.034129597	93.9316
7.024598035	93.9539
7.01509227	93.9793
7.005612196	93.9727
6.99615771	94.0222
6.986728709	94.0684
6.977325089	94.0654
6.967946748	94.1023
6.958593585	94.1853
6.949265497	94.1621
6.939962385	94.1809
6.930688952	94.2117
6.921435478	94.2666
6.912206681	94.3311
6.903002461	94.3467
6.893822721	94.3516
6.884667364	94.3897
6.875536292	94.4421
6.866429409	94.5645
6.857346618	94.6189
6.848287825	94.5508
6.839252935	94.5234
6.830241852	94.5713
6.821254483	94.6033
6.812290735	94.5623
6.803350514	94.5898
6.794433728	94.6758
6.785540285	94.7112
6.776670093	94.6826
6.767823062	94.6902
6.7589991	94.7236
6.750198118	94.7471
6.741420026	94.7683
6.732664735	94.8079
6.723932156	94.8689
6.715226709	94.8945
6.706539278	94.9265
6.697874296	94.9402
6.689231675	94.9895
6.680611329	95.0554
6.672013173	95.0625
6.663437121	95.0427
6.654883087	95.0557
6.646350987	95.136
6.637840737	95.251
6.629352253	95.239
6.620885451	95.1873
6.612440248	95.2175
6.604016563	95.252
6.595614312	95.2976
6.587233415	95.3259
6.578873789	95.3896
6.570535354	95.4343
6.56221803	95.406
6.553921736	95.3806
6.545646392	95.3748
6.537391921	95.4014
6.529158241	95.4043
6.520945276	95.4766
6.512757189	95.4902
6.504585407	95.49
6.496434107	95.6289
6.488303211	95.6697
6.480192643	95.6221
6.472102327	95.5862
6.464032186	95.5388
6.455982145	95.5381
6.44795213	95.5488
6.439942066	95.5381
6.431951879	95.5645
6.423981494	95.6296
6.416030838	95.7117
6.408099838	95.665
6.400188422	95.5271
6.392296516	95.4902
6.384424048	95.4763
6.376570948	95.4822
6.368737143	95.4846
6.360922563	95.4199
6.353127136	95.4021
6.345350793	95.4724
6.337593464	95.4026
6.329855078	95.2422
6.322139564	95.2041
6.314438848	95.1707
6.30675687	95.1238
6.29909356	95.0752
6.291448851	95.043
6.283822676	94.9678
6.276214965	94.905
6.268625654	94.8779
6.261054675	94.7988
6.253501961	94.7078
6.245967447	94.6365
6.238451067	94.5352
6.230952756	94.3992
6.223472449	94.2678
6.21601008	94.1309
6.208565585	93.9553
6.201142747	93.7361
6.1937338	93.5593
6.186342535	93.4099
6.178968891	93.1941
6.171612803	92.9629
6.164274209	92.7998
6.156953047	92.6707
6.149649255	92.5452
6.14236277	92.4482
6.135093533	92.3377
6.12784148	92.2822
6.120606552	92.4551
6.113388688	92.7305
6.106187828	92.8731
6.099003911	92.9656
6.091836878	93.1074
6.084686669	93.2478
6.077553226	93.4119
6.070436489	93.5413
6.063336399	93.5994
6.056252899	93.7371
6.049185931	93.9827
6.042135436	93.9863
6.035101357	93.9561
6.02808727	94.0606
6.021085843	94.1941
6.01410066	94.2805
6.007131667	94.3789
6.000178805	94.457
5.99324202	94.5938
5.986321256	94.7207
5.979416457	94.7976
5.972527568	94.8965
5.965654534	94.989
5.9587973	95.0408
5.951955813	95.1399
5.945130017	95.2551
5.938319859	95.4785
5.931525286	95.5977
5.924746243	95.5486
5.917982678	95.5947
5.911234538	95.668
5.904501769	95.7234
5.89778432	95.8789
5.891082139	95.9636
5.884395172	96.0574
5.87772337	96.1211
5.871066679	96.0312
5.864428488	96.0774
5.85780186	96.1047
5.851190191	96.1111
5.84459343	96.1394
5.838011527	96.1663
5.831444431	96.2458
5.824892094	96.335
5.818354465	96.3464
5.811831494	96.2673
5.805323133	96.2949
5.798829332	96.3486
5.792350043	96.3535
5.785885217	96.3738
5.779434806	96.4355
5.772998761	96.5349
5.766577035	96.657
5.760169579	96.6453
5.753776347	96.6072
5.747397291	96.6409
5.741032364	96.6709
5.734681519	96.6816
5.728344709	96.6687
5.722021888	96.7058
5.715713009	96.7507
5.709421287	96.7878
5.703140149	96.7568
5.696872816	96.7451
5.690619242	96.7441
5.684379382	96.7478
5.678153192	96.792
5.671940626	96.8154
5.66574164	96.7737
5.659556189	96.7939
5.653384229	96.8516
5.647225716	96.8652
5.641080605	96.9209
5.634948854	96.9062
5.628830419	96.8757
5.622725256	96.8545
5.616633323	96.8721
5.610557723	96.8662
5.604492113	96.8533
5.598439603	96.8516
5.592400152	96.8269
5.586373717	96.8457
5.580360257	96.9014
5.574359729	96.9138
5.568372092	96.8779
5.562397304	96.905
5.556435324	96.906
5.550486112	96.905
5.544549625	96.8889
5.538625823	96.8926
5.532714665	96.8818
5.526816112	96.8884
5.520930122	96.8711
5.515056656	96.8906
5.509195674	96.8857
5.503347136	96.8933
5.497511002	96.9014
5.491687233	96.9187
5.48587579	96.9109
5.480076633	96.9228
5.474289725	96.9529
5.468518015	96.9792
5.462755479	97.0195
5.457005076	97.0134
5.451266765	97.0312
5.445540511	97.0339
5.439826274	97.0605
5.434124016	97.0857
5.428433701	97.0967
5.422755291	97.1211
5.417088748	97.123
5.411434035	97.0837
5.405791116	97.0635
5.400159953	97.0847
5.394540509	97.1003
5.388932749	97.0947
5.383336635	97.0867
5.377752132	97.1045
5.372179203	97.1423
5.366617813	97.1765
5.361067925	97.1663
5.355529504	97.2051
5.350002515	97.2344
5.344486921	97.2566
5.338982689	97.2715
5.333492627	97.3162
5.328011006	97.3379
5.32254064	97.3533
5.317081497	97.3535
5.31163354	97.3574
5.306196736	97.4099
5.30077105	97.4131
5.295356449	97.4199
5.289952898	97.4568
5.284560364	97.4727
5.279178813	97.4861
5.273808212	97.4958
5.268448526	97.5137
5.263099724	97.5325
5.257761771	97.5749
5.252434635	97.6199
5.247118283	97.6248
5.241812682	97.6218
5.236517799	97.6443
5.231233603	97.6865
5.225960061	97.7195
5.220697141	97.7393
5.21544481	97.7617
5.210203036	97.78
5.204974498	97.7871
5.19975374	97.8154
5.194543444	97.8467
5.189343579	97.8347
5.184154115	97.8669
5.178975019	97.8916
5.173806261	97.9014
5.168647809	97.9128
5.163499634	97.9607
5.158361704	97.9695
5.153233989	97.9851
5.148116459	98.0251
5.143009082	98.0378
5.137911829	98.04
5.13282467	98.0566
5.127747575	98.0671
5.122680514	98.0583
5.117623458	98.0691
5.112576376	98.1143
5.107539239	98.1182
5.102512018	98.1453
5.097494683	98.1728
5.092487206	98.2002
5.087489558	98.2197
5.082504292	98.241
5.077526209	98.24
5.072557868	98.2146
5.06759924	98.2205
5.062650297	98.2458
5.057711011	98.2483
5.052781354	98.2766
5.047861297	98.2942
5.042950812	98.2825
5.038049872	98.2776
5.033158448	98.2932
5.028276513	98.2839
5.023404039	98.3054
5.018541	98.3552
5.013687367	98.3694
5.008843113	98.3772
5.004010715	98.3821
4.999185133	98.4265
4.994368849	98.4563
4.989561837	98.449
4.984764069	98.4597
4.979975518	98.4924
4.97519616	98.5115
4.970425966	98.5281
4.96566491	98.5154
4.960912967	98.51
4.95617011	98.5173
4.951436313	98.5603
4.94671155	98.5295
4.941995795	98.4944
4.937289023	98.529
4.932591209	98.5579
4.927902325	98.5535
4.923222347	98.5871
4.918551251	98.6072
4.913889009	98.6218
4.909235598	98.658
4.904590991	98.6995
4.899955165	98.676
4.895328095	98.6677
4.890712146	98.6711
4.886102507	98.6482
4.88150155	98.6614
4.876909249	98.6887
4.87232558	98.7004
4.86775052	98.6799
4.863184043	98.6843
4.858626126	98.6785
4.854076745	98.7117
4.849535875	98.7361
4.845003493	98.7742
4.840479575	98.7732
4.835964098	98.7468
4.831457037	98.7844
4.826958369	98.7869
4.822468072	98.7795
4.81798612	98.7693
4.813512492	98.7903
4.809047164	98.7971
4.804590113	98.7922
4.800141316	98.7869
4.79570075	98.8118
4.791268392	98.845
4.78684422	98.8513
4.782430498	98.844
4.778022625	98.8596
4.773622869	98.8728
4.769231209	98.8591
4.764847623	98.8313
4.760472086	98.8601
4.756104579	98.8689
4.751745078	98.8562
4.747393562	98.884
4.743050009	98.9246
4.738714396	98.9475
4.734386703	98.9221
4.730066907	98.9187
4.725754987	98.9026
4.721450921	98.9226
4.717154688	98.9148
4.712866266	98.9104
4.708585635	98.9119
4.704312773	98.9021
4.700047658	98.925
4.695790271	98.9524
4.691540589	98.9773
4.687298593	98.9582
4.68306426	98.9675
4.67883976	99.0144
4.67462069	99.0105
4.670409221	99.0198
4.666205334	99.0251
4.662009009	99.0334
4.657820224	99.0212
4.65363896	99.032
4.649465195	99.0588
4.645298911	99.0583
4.641140087	99.094
4.636988702	99.0945
4.632844738	99.092
4.628708174	99.1033
4.62457899	99.1125
4.620457167	99.1287
4.616342684	99.1179
4.612235523	99.116
4.608135664	99.1033
4.604043086	99.1301
4.599957772	99.1765
4.595879702	99.2092
4.591808856	99.1721
4.587745215	99.1785
4.58368876	99.2043
4.57964157	99.1785
4.575599426	99.2068
4.571564412	99.2292
4.567536508	99.2244
4.563515696	99.2146
4.559501956	99.2361
4.555495271	99.2537
4.551495621	99.2507
4.547502989	99.26
4.543517355	99.2766
4.539538701	99.2517
4.535567009	99.26
4.531602261	99.2781
4.527644439	99.2912
4.523693523	99.2927
4.519749497	99.3171
4.515814382	99.3147
4.511884077	99.2873
4.507960608	99.281
4.504043956	99.3054
4.500134104	99.3181
4.496231034	99.3191
4.492334729	99.3264
4.488445171	99.364
4.484562343	99.3904
4.480686226	99.3596
4.476816804	99.3772
4.47295406	99.406
4.469097975	99.4006
4.465248534	99.4158
4.461405718	99.4109
4.45756951	99.4104
4.453739894	99.427
4.449916853	99.4065
4.44610037	99.3835
4.442290427	99.4294
4.438487009	99.4372
4.434690097	99.4099
4.430899676	99.4285
4.42711573	99.4612
4.423340197	99.4841
4.419569145	99.5178
4.415804518	99.5486
4.412046298	99.5339
4.408294471	99.5369
4.404549018	99.5666
4.400809925	99.612
4.397077175	99.594
4.393350752	99.6101
4.389630639	99.5989
4.385916821	99.5984
4.382209282	99.6579
4.378508006	99.6912
4.374812977	99.7038
4.371124179	99.6897
4.367441596	99.7102
4.363765214	99.7327
4.360095015	99.7385
4.356430985	99.7346
4.352773108	99.7214
4.349121369	99.7126
4.345475751	99.7185
4.341836241	99.7312
4.338202821	99.7356
4.334577357	99.7268
4.330956072	99.7302
4.327340832	99.7361
4.323731623	99.7707
4.320128429	99.8049
4.316531235	99.7976
4.312940028	99.7624
4.30935479	99.7756
4.305775509	99.7829
4.302202168	99.7742
4.298634754	99.7932
4.29507325	99.8054
4.291517644	99.7976
4.287967919	99.8108
4.284424062	99.8337
4.280886058	99.8396
4.277353892	99.8596
4.27382755	99.8689
4.270307018	99.8747
4.266792281	99.865
4.263283325	99.8572
4.259780136	99.8757
4.256282699	99.9089
4.252791	99.8826
4.249306832	99.9123
4.245826565	99.9763
4.242351994	99.9744
4.238883105	99.9709
4.235419885	99.9685
4.231962319	99.9841
4.228510393	99.9704
4.225064094	100.008
4.221623408	100.0071
4.218188322	99.9729
4.214758821	99.9607
4.211334892	99.9763
4.207916522	99.9651
4.204503696	99.9626
4.201096402	99.9783
4.197694626	99.9934
4.194300114	99.9758
4.190909331	100.0095
4.187524026	100.0154
4.184144186	100.0329
4.180769797	100.0544
4.177400846	100.0876
4.174037321	100.116
4.170679208	100.1545
4.167326493	100.1345
4.163979165	100.1135
4.16063721	100.1384
4.157300615	100.1306
4.153969367	100.1316
4.150643454	100.1033
4.147322862	100.1003
4.144007579	100.1155
4.140697592	100.133
4.137392888	100.1662
4.134093455	100.1648
4.130799281	100.1584
4.127510352	100.1623
4.124226656	100.1785
4.120948181	100.1745
4.117674914	100.1897
4.114408535	100.219
4.111145645	100.1902
4.107887925	100.196
4.104635365	100.2229
4.101387951	100.2092
4.098145671	100.1951
4.094908514	100.1706
4.091676466	100.2195
4.088449517	100.2561
4.085227653	100.2541
4.082010864	100.2634
4.078799136	100.26
4.075592459	100.2952
4.072390819	100.2693
4.069194206	100.2654
4.066002607	100.2898
4.062816011	100.3108
4.059634406	100.2888
4.056457779	100.2756
4.053286121	100.2698
4.050119418	100.2673
4.046957659	100.2756
4.043800833	100.3259
4.040648928	100.2771
4.037503563	100.2854
4.034361463	100.3454
4.031224251	100.3733
4.028091913	100.3581
4.024964439	100.3533
4.021841819	100.3484
4.018724039	100.366
4.01561109	100.365
4.012502959	100.3537
4.009399637	100.3557
4.00630111	100.3689
4.00320737	100.362
4.000118404	100.3738
3.997034201	100.3474
3.99395475	100.3557
3.990880041	100.3464
3.987810062	100.3713
3.984744803	100.4148
3.981684252	100.407
3.9786284	100.4119
3.975577234	100.4187
3.972530744	100.4534
3.96948892	100.4656
3.966451751	100.491
3.963420797	100.4631
3.960392903	100.4514
3.957369631	100.5022
3.954350972	100.5593
3.951336915	100.5613
3.948327449	100.529
3.945322564	100.5681
3.942322249	100.5725
3.939326493	100.5412
3.936335288	100.5495
3.933348621	100.5779
3.930366483	100.6169
3.927388864	100.613
3.924415753	100.635
3.921447139	100.6501
3.918483014	100.6428
3.915523366	100.6365
3.912568186	100.613
3.909617463	100.6194
3.906671188	100.6272
3.90372935	100.6345
3.900791939	100.6492
3.897858945	100.6565
3.894930359	100.6472
3.892007684	100.6404
3.889087881	100.5867
3.886172454	100.592
3.883261396	100.6238
3.880354695	100.6189
3.877452343	100.6057
3.874554329	100.6194
3.871660644	100.6565
3.868771278	100.6531
3.865886222	100.6526
3.863005465	100.6565
3.860128998	100.6716
3.857256812	100.7058
3.854388896	100.7131
3.851525243	100.7209
3.848665841	100.7463
3.845812161	100.7341
3.842961232	100.7229
3.840114528	100.7268
3.837272037	100.7244
3.834433752	100.699
3.831599662	100.7292
3.828769759	100.7722
3.825944033	100.7829
3.823122474	100.7458
3.820305074	100.7771
3.817491824	100.7917
3.814682714	100.7756
3.811877735	100.7937
3.809076878	100.7991
3.806280134	100.803
3.803487494	100.7932
3.800698949	100.8171
3.797914489	100.8552
3.795134107	100.8386
3.792357792	100.8484
3.789585537	100.8655
3.786817332	100.8952
3.784053167	100.8889
3.781293036	100.8869
3.778538356	100.8552
3.77578626	100.8537
3.773038171	100.8967
3.770294079	100.8772
3.767553976	100.8498
3.764817852	100.8342
3.7620857	100.8757
3.759357511	100.8982
3.756633275	100.8786
3.753912985	100.8718
3.751196632	100.8772
3.748484207	100.9011
3.745775701	100.9285
3.743071107	100.9397
3.740370416	100.9411
3.73767362	100.9294
3.734980709	100.8967
3.732291676	100.8948
3.729606512	100.8948
3.726925208	100.8728
3.724247758	100.864
3.721574151	100.8835
3.718904381	100.8909
3.716238438	100.8869
3.713577694	100.8557
3.71091938	100.8401
3.708264869	100.8415
3.705614154	100.8415
3.702967225	100.8401
3.700324074	100.8611
3.697684695	100.8767
3.695049078	100.866
3.692417215	100.8811
3.689789099	100.9021
3.687164722	100.8772
3.684544075	100.9031
3.68192715	100.9138
3.67931394	100.9529
3.676704437	100.9675
3.674098633	100.9704
3.67149652	100.9675
3.66889809	100.9319
3.666303336	100.9402
3.663712249	100.9343
3.661124822	100.9162
3.658541047	100.9299
3.655960916	100.949
3.653384422	100.9431
3.65081289	100.9314
3.648243644	100.9709
3.645678012	101.0017
3.643115986	100.9841
3.640557559	100.9441
3.638002722	100.926
3.635451469	100.9245
3.632903791	100.9343
3.630359682	100.9021
3.627819133	100.9138
3.625282138	100.9499
3.622748688	100.9441
3.620218777	100.9236
3.617692397	100.9109
3.615169541	100.9431
3.6126502	100.949
3.610135673	100.8826
3.607623341	100.904
3.605114504	100.926
3.602609154	100.9651
3.600107283	100.9651
3.597608885	100.9392
3.595113953	100.9685
3.592622478	100.9744
3.590134454	101.0095
3.587649874	101.0046
3.585168731	100.9997
3.582691017	100.969
3.580216725	100.9646
3.577745848	100.928
3.57527838	100.9187
3.572814313	100.9597
3.57035364	100.9353
3.567896354	100.9148
3.565442448	100.9177
3.562991916	100.9241
3.560544749	100.9119
3.558100942	100.9514
3.555660487	100.9392
3.553223378	100.9162
3.550790868	100.9494
3.548360427	100.9646
3.545933311	100.987
3.543509513	100.9802
3.541089027	100.9573
3.538671844	100.9411
3.53625796	100.9338
3.533847367	100.9827
3.531440058	101.0002
3.529036026	100.9983
3.526635266	101.008
3.524237769	101.0232
3.52184353	101.0862
3.519452542	101.1272
3.517064798	101.1482
3.514680292	101.1721
3.512299017	101.2522
3.509920967	101.324
3.507546135	101.3909
3.505174514	101.4353
3.502806098	101.4436
3.500440881	101.4143
3.498078855	101.4358
3.495720015	101.4026
3.493365575	101.3367
3.491013085	101.3122
3.488663762	101.3069
3.486317598	101.2517
3.483974588	101.2439
3.481634725	101.2561
3.479298003	101.2087
3.476964415	101.1897
3.474633956	101.1623
3.472306619	101.1482
3.469982397	101.1531
3.467661284	101.1404
3.465343275	101.1423
3.463028363	101.1062
3.460716541	101.1189
3.458407804	101.1286
3.456102146	101.1428
3.453799559	101.178
3.451500039	101.2126
3.449203579	101.2619
3.446910172	101.2517
3.444619814	101.2654
3.442332497	101.3264
3.440048216	101.3201
3.437768146	101.3225
3.435489916	101.3791
3.433214704	101.4548
3.430942504	101.5554
3.428673309	101.6526
3.426407114	101.7014
3.424143913	101.741
3.421883699	101.8166
3.419626467	101.7947
3.417372212	101.7771
3.415120926	101.699
3.412872605	101.6506
3.410627242	101.5334
3.408384831	101.428
3.406145367	101.3479
3.403908845	101.24
3.401675257	101.2136
3.399444599	101.1604
3.397216864	101.1072
3.394992047	101.0876
3.392770143	101.1037
3.390551144	101.0686
3.388335047	100.99
3.386121844	101.0115
3.383912676	100.9924
3.381705245	100.9475
3.379500692	100.9221
3.377299012	100.9006
3.375100198	100.8342
3.372904246	100.8044
3.370711149	100.7937
3.368520903	100.7097
3.366333501	100.6462
3.364148938	100.6169
3.361967208	100.5798
3.359788306	100.4939
3.357612227	100.449
3.355438965	100.469
3.353268515	100.4744
3.35110087	100.4299
3.348937148	100.4006
3.346775098	100.3679
3.344615837	100.3733
3.342459362	100.3376
3.340305665	100.3479
3.338154741	100.3166
3.336006587	100.2952
3.333861195	100.2771
3.33171856	100.2327
3.329578678	100.2419
3.327441544	100.258
3.32530715	100.2248
3.323175494	100.1833
3.321046568	100.2185
3.318920368	100.1443
3.31679689	100.1404
3.314676126	100.1057
3.312558073	100.1072
3.310442725	100.0701
3.308330077	100.0408
3.306220124	100.0525
3.304112861	100.0417
3.302008281	100.0178
3.299906382	99.9802
3.297808244	99.9768
3.295711686	99.9495
3.293617792	99.9299
3.291526557	99.9495
3.289437976	99.9416
3.287352045	99.9216
3.285268756	99.8982
3.283188107	99.8611
3.281110091	99.8928
3.279034705	99.8962
3.276961942	99.8909
3.274891798	99.8245
3.272824267	99.8552
3.270759346	99.8772
3.268697029	99.8049
3.26663731	99.7859
3.264580186	99.7556
3.262525652	99.7527
3.260473701	99.6687
3.25842433	99.6101
3.256377534	99.614
3.254333308	99.6052
3.252291646	99.5681
3.250252545	99.5857
3.248217054	99.5417
3.246183057	99.5593
3.244151606	99.5437
3.242122696	99.5163
3.240096322	99.4831
3.238072479	99.4929
3.236051163	99.4353
3.234032369	99.3708
3.232016093	99.3279
3.230002329	99.3484
3.227991073	99.2351
3.22598232	99.1648
3.223976065	99.1746
3.221972305	99.1384
3.219971033	99.0984
3.217972246	99.0935
3.215975939	99.0456
3.213982108	98.9822
3.211990747	98.9968
3.210001852	98.988
3.208015419	98.9714
3.206031443	98.9304
3.204049919	98.904
3.202070843	98.8572
3.200095235	98.783
3.19812104	98.7244
3.196149279	98.7468
3.194179949	98.6619
3.192213043	98.6697
3.190248559	98.7009
3.18828649	98.6257
3.186326834	98.6033
3.184369586	98.5779
3.18241474	98.4861
3.180462293	98.488
3.17851224	98.447
3.176564577	98.3923
3.1746193	98.3015
3.172676403	98.2537
3.170735883	98.2664
3.168797736	98.2585
3.166861956	98.1863
3.164928541	98.1843
3.162997484	98.1384
3.161068783	98.0535
3.159142432	98.0124
3.157218427	97.9753
3.155296765	97.8982
3.153378435	97.863
3.151461443	97.8689
3.14954678	97.7917
3.147634443	97.7351
3.145724426	97.7175
3.143816726	97.613
3.141911338	97.5906
3.140008258	97.5554
3.138107483	97.5154
3.136209007	97.4656
3.134312827	97.4382
3.132418938	97.3669
3.130527337	97.3035
3.128638019	97.3064
3.126750981	97.3171
3.124866217	97.2859
3.122984699	97.2019
3.121104471	97.1414
3.119226507	97.115
3.1173508	97.0544
3.115477349	97.0359
3.113606148	97.0232
3.111737193	96.9685
3.10987048	96.904
3.108006006	96.9158
3.106143766	96.8044
3.104283756	96.7292
3.102425973	96.6814
3.100570412	96.657
3.098717069	96.6472
3.096865941	96.6296
3.095017023	96.6042
3.093170311	96.5759
3.091325802	96.5066
3.089483491	96.4978
3.087643375	96.4548
3.085805449	96.4421
3.08396971	96.3894
3.082136155	96.3689
3.080304778	96.3416
3.078476524	96.3748
3.076649492	96.3562
3.074824627	96.3699
3.073001926	96.3552
3.071181385	96.3123
3.069363	96.3132
3.067546766	96.2546
3.065732681	96.1882
3.06392074	96.1501
3.06211094	96.1199
3.060303276	96.1365
3.058497745	96.0759
3.056694344	96.0994
3.054893068	96.1287
3.053093914	96.0466
3.051296877	95.99
3.049501955	95.9314
3.047709144	95.9119
3.045918439	95.8416
3.044129837	95.7361
3.042343335	95.7068
3.040558928	95.6921
3.038776613	95.5974
3.036996386	95.4939
3.035219166	95.5046
3.033443104	95.4763
3.031669119	95.4392
3.029897208	95.3699
3.028127367	95.3259
3.026359592	95.2712
3.02459388	95.2185
3.022830228	95.1267
3.021068631	95.0466
3.019309085	94.9724
3.017551589	94.95
3.015796137	94.8923
3.014042726	94.8123
3.012291354	94.7459
3.010542015	94.7273
3.008794707	94.6755
3.007049426	94.6101
3.005306169	94.5603
3.003564931	94.5291
3.00182571	94.4939
3.000088503	94.4919
2.998353304	94.4158
2.996620112	94.3513
2.994888923	94.2781
2.993160628	94.2703
2.991433432	94.2595
2.989708228	94.1882
2.987985013	94.1765
2.986263784	94.2156
2.984544536	94.1609
2.982827267	94.0798
2.981111973	94.0271
2.97939865	93.9959
2.977687296	94.0095
2.975977906	93.9265
2.974270478	93.8728
2.972565009	93.8044
2.970861493	93.7546
2.96915993	93.6755
2.967460314	93.5828
2.965763522	93.5515
2.964067792	93.4841
2.962373999	93.4773
2.960682141	93.45
2.958992215	93.4109
2.957304216	93.4021
2.955618142	93.4236
2.95393399	93.4109
2.952251756	93.4421
2.950571437	93.3884
2.94889303	93.3513
2.947216531	93.3718
2.945541937	93.3914
2.943869245	93.3757
2.942198452	93.3044
2.940529554	93.2947
2.938862549	93.3259
2.937197432	93.2927
2.935534201	93.2546
2.933872853	93.2185
2.932213384	93.2068
2.930555792	93.1677
2.928900072	93.2146
2.927246222	93.199
2.925595095	93.1912
2.923944975	93.2039
2.922296715	93.2029
2.920650312	93.1892
2.919005763	93.2156
2.917363066	93.2029
2.915722216	93.2537
2.91408321	93.2742
2.912446047	93.3201
2.910810722	93.3679
2.909177232	93.3923
2.907545575	93.3787
2.905915747	93.3943
2.904287745	93.4617
2.902661566	93.4783
2.901037208	93.4812
2.899414666	93.4568
2.897793938	93.4529
2.896175022	93.5134
2.894557913	93.6091
2.892942609	93.6873
2.891329106	93.7459
2.889717403	93.7693
2.888107495	93.8494
2.886500214	93.8201
2.884893888	93.8552
2.883289349	93.9304
2.881686594	93.9734
2.880085619	93.9539
2.878486423	93.988
2.876889001	94.0398
2.875293352	94.0671
2.873699471	94.0818
2.872107357	94.0935
2.870517006	94.1951
2.868928415	94.1951
2.867341582	94.1482
2.865756502	94.2146
2.864173175	94.283
2.862591596	94.2771
2.861011762	94.3005
2.859433672	94.363
2.857857321	94.4568
2.856282708	94.4822
2.854709829	94.574
2.853138681	94.6101
2.851569261	94.6209
2.850001568	94.6804
2.848436408	94.739
2.846872156	94.7498
2.845309621	94.8289
2.8437488	94.8396
2.842189691	94.8513
2.840632291	94.8787
2.839076596	94.8806
2.837522604	94.907
2.835970313	94.8826
2.834419719	94.8289
2.83287082	94.7947
2.831323613	94.7507
2.829778094	94.7625
2.828234263	94.7039
2.826692114	94.5164
2.825151647	94.4382
2.823612858	94.4421
2.822075744	94.2849
2.820540303	94.1794
2.819006531	94.1013
2.817474427	93.9587
2.815943987	93.8142
2.81441521	93.6921
2.812888091	93.4529
2.811363418	93.3054
2.809839609	93.0857
2.80831745	92.8836
2.806796939	92.6648
2.805278075	92.4314
2.803760853	92.2302
2.802245271	91.989
2.800731327	91.7498
2.799219018	91.5242
2.797708341	91.1716
2.796199294	90.9451
2.794691874	90.7195
2.793186078	90.4656
2.791681905	90.1677
2.79017935	89.8406
2.788678412	89.6257
2.787179865	89.3914
2.785682151	89.0701
2.784186046	88.8132
2.782691547	88.5955
2.781198652	88.3211
2.779707358	88.0867
2.778217662	87.9295
2.776729562	87.7
2.775243056	87.5076
2.77375814	87.2976
2.772274812	87.0984
2.77079307	86.9314
2.769312911	86.7703
2.767834333	86.5955
2.766357333	86.5154
2.764881908	86.4021
2.763408056	86.2537
2.761935774	86.1131
2.760465061	86.0935
2.758995913	86.1375
2.757528328	86.2713
2.756062304	86.4217
2.754597837	86.6062
2.753134926	86.7654
2.751674325	86.9978
2.750214517	87.2859
2.748756257	87.49
2.747299542	87.8523
2.74584437	88.1756
2.74439074	88.532
2.742938647	88.8748
2.741488091	89.2859
2.740039067	89.8084
2.738591575	90.1716
2.737145611	90.5271
2.735701174	90.9568
2.73425826	91.4773
2.732816867	91.8826
2.731376994	92.3513
2.729938636	92.8484
2.728501793	93.3132
2.727066462	93.8445
2.72563264	94.3757
2.724200325	94.8865
2.722769514	95.3171
2.721340206	95.7224
2.719912397	96.2283
2.718486086	96.6833
2.717062008	97.1091
2.715638684	97.4763
2.714216851	97.7966
2.712796505	98.1287
2.711377646	98.5046
2.709960269	98.8005
2.708544374	98.9617
2.707129958	99.1062
2.705717018	99.1638
2.704305552	99.4148
2.702895558	99.6101
2.701487034	99.8093
2.700079976	100.1179
2.698674384	100.4841
2.697270255	100.7126
2.695867585	100.9812
2.694466374	101.3327
2.693066619	101.5661
2.691668318	101.8474
2.690271467	101.9968
2.688876066	102.238
2.687482111	102.3396
2.686089602	102.4421
2.684698534	102.4812
2.683309626	102.6286
2.681921436	102.6716
2.680534681	102.6247
2.679149359	102.7341
2.677765469	102.8523
2.676383008	102.9333
2.675001973	102.9304
2.673622363	102.946
2.672244175	102.9538
2.670867407	103.0915
2.669492057	103.2156
2.668118123	103.1013
2.666745602	103.1872
2.665374493	103.2732
2.664004793	103.3669
2.6626365	103.2429
2.66127032	103.2732
2.659904834	103.2702
2.658540748	103.3005
2.657178061	103.2976
2.65581677	103.3279
2.654456873	103.3132
2.653098368	103.3005
2.651741253	103.3005
2.650385525	103.2615
2.649031183	103.2976
2.647678224	103.2976
2.646326647	103.3552
2.644976449	103.3865
2.643627628	103.4138
2.642280182	103.4529
2.640934109	103.4704
2.639589407	103.5271
2.638246073	103.49
2.636904106	103.5056
2.635563503	103.5564
2.634224263	103.5681
2.632886383	103.4685
2.631549862	103.4431
2.630214697	103.449
2.628881577	103.5115
2.627549117	103.4587
2.626218007	103.49
2.624888245	103.4177
2.62355983	103.4724
2.622232758	103.5525
2.620907028	103.6189
2.619582638	103.6755
2.618259585	103.6286
2.616937869	103.7243
2.615617486	103.7302
2.614298435	103.6794
2.612980713	103.7556
2.61166432	103.7829
2.610349252	103.7712
2.609035507	103.7107
2.607723085	103.8044
2.606411982	103.7536
2.605102197	103.8044
2.603793727	103.8044
2.602486572	103.7575
2.601180728	103.8376
2.599876194	103.8591
2.598572968	103.8728
2.597271722	103.8747
2.595971105	103.9724
2.59467179	104.1482
2.593373774	104.0974
2.592077057	104.0837
2.590781636	104.1677
2.589487509	104.1072
2.588194675	104.2048
2.58690313	104.1814
2.585612874	104.2263
2.584323905	104.2243
2.58303622	104.2185
2.581749817	104.2165
2.580464695	104.113
2.579180852	104.0779
2.577898286	104.1052
2.576616995	104.0896
2.575336976	104.0368
2.574058229	104.0388
2.572780751	104.072
2.571504541	104.1247
2.570229596	104.1814
2.568955915	104.0857
2.567683495	104.1325
2.566412994	104.1736
2.565143091	104.2654
2.563874445	104.3318
2.562607053	104.3064
2.561340913	104.3064
2.560076024	104.2849
2.558812384	104.2478
2.55754999	104.2126
2.556288841	104.1404
2.555028936	104.2282
2.553770272	104.2751
2.552512847	104.1911
2.55125666	104.1833
2.550001709	104.1365
2.548747991	104.0935
2.547495506	104.2107
2.546244252	104.195
2.544994225	104.2673
2.543745426	104.3396
2.542497852	104.281
2.5412515	104.3259
2.54000637	104.3532
2.53876246	104.3532
2.537519767	104.3865
2.536278934	104.363
2.535038671	104.3298
2.53379962	104.3337
2.53256178	104.3142
2.531325149	104.2966
2.530089725	104.2986
2.528855506	104.2673
2.52762249	104.1736
2.526390677	104.2829
2.525160064	104.3064
2.523930648	104.2126
2.52270243	104.238
2.521475406	104.2712
2.520249575	104.2224
2.519024936	104.2575
2.517801486	104.3669
2.516579857	104.3747
2.515358781	104.5115
2.514138889	104.4861
2.512920179	104.4724
2.511702651	104.5486
2.510486301	104.5505
2.50927113	104.6462
2.508057134	104.5505
2.506844312	104.6833
2.505632662	104.7204
2.504422183	104.5954
2.503212874	104.5564
2.502004731	104.7126
2.500797754	104.5876
2.499591942	104.6345
2.498387291	104.699
2.497183801	104.7224
2.49598147	104.5974
2.494780296	104.6052
2.493580278	104.6032
2.492381413	104.6482
2.491183701	104.5466
2.489987139	104.6052
2.488791726	104.5857
2.48759808	104.5896
2.486404959	104.6833
2.485212983	104.6638
2.484022149	104.7029
2.482832455	104.7263
2.4816439	104.8396
2.480456483	104.8161
2.479270202	104.8689
2.478085055	104.7673
2.47690104	104.8064
2.475718156	105.0193
2.474536402	105.0583
2.473355775	104.9704
2.472176274	104.8142
2.470997898	104.7849
2.469820644	104.8767
2.468644512	104.8747
2.467469499	104.8396
2.466295604	104.8513
2.465122826	104.9099
2.463951163	104.82
2.462780612	104.7849
2.461611174	104.8122
2.460442845	104.9392
2.45927623	104.9529
2.458110116	104.9704
2.456945108	104.9997
2.455781204	105.0642
2.454618401	105.1091
2.4534567	105.2107
2.452296097	105.0974
2.451136592	105.0583
2.449978183	104.9997
2.448820868	104.9997
2.447664646	104.9939
2.446509516	104.9802
2.445355475	105.0505
2.444202523	104.9236
2.443050657	104.8454
2.441899876	105.0407
2.440750179	104.9802
2.439601564	105.1482
2.43845403	105.195
2.437307575	105.2107
2.436162197	105.2048
2.435017895	105.1423
2.433874668	105.195
2.432732513	105.1657
2.431592022	105.1111
2.430452008	105.1814
2.429313063	105.0329
2.428175185	105.0564
2.427038372	105.07
2.425902624	105.238
2.424767938	105.2185
2.423634312	105.1286
2.422501747	105.0349
2.421370239	105.1677
2.420239788	105.2263
2.419110392	105.2751
2.417982049	105.2282
2.416854758	105.1794
2.415728518	105.2204
2.414603328	105.1833
2.413479185	105.2517
2.412356088	105.3044
2.411234036	105.3454
2.410113027	105.445
2.40899306	105.4236
2.407874134	105.3669
2.406756246	105.4294
2.405639396	105.4704
2.40452416	105.4392
2.40340938	105.4216
2.402295634	105.4861
2.401182919	105.4997
2.400071234	105.4489
2.398960578	105.3454
2.39785095	105.4157
2.396742348	105.4861
2.39563477	105.5505
2.394528216	105.445
2.393422683	105.4216
2.392318171	105.4626
2.391214677	105.5407
2.390112201	105.4958
2.389010742	105.4685
2.387910297	105.4861
2.386811435	105.5232
2.385713014	105.6208
2.384615605	105.6345
2.383519204	105.697
2.382423811	105.7126
2.381329425	105.7497
2.380236043	105.6364
2.379143665	105.6716
2.37805229	105.7595
2.376961915	105.7907
2.375872539	105.7751
2.374784162	105.8747
2.373696781	105.9294
2.372610396	105.9314
2.371525004	105.9138
2.370440606	105.9392
2.369357198	106.0642
2.368274781	106.0017
2.367193351	106.0779
2.366112909	106.1091
2.365033453	106.0622
2.363954982	105.9548
2.362877493	105.8532
2.361800987	105.7204
2.360726018	105.7907
2.35965147	105.8357
2.3585779	105.7497
2.357505307	105.6989
2.356433688	105.6482
2.355363044	105.7361
2.354293372	105.7966
2.353224671	105.9685
2.35215694	105.9685
2.351090177	105.9685
2.350024382	106.0583
2.348959552	105.9802
2.347895687	106.1247
2.346832785	106.0876
2.345770845	106.0075
2.344709866	106.0466
2.343649846	106.1657
2.342590784	106.1579
2.341532678	106.1677
2.340475528	106.1579
2.339419333	106.197
2.33836409	106.2517
2.337309798	106.0779
2.336256457	106.2361
2.335204611	106.3513
2.334153166	106.4001
2.333102667	106.1657
2.332053114	106.1599
2.331004504	106.197
2.329956838	106.195
2.328910112	106.1482
2.327864326	106.1833
2.32681948	106.156
2.325775571	106.2595
2.324732598	106.2673
2.32369056	106.2907
2.322649456	106.2497
2.321609284	106.1599
2.320570043	106.2361
2.319531733	106.4392
2.318494351	106.4314
2.317457897	106.3357
2.316422369	106.4568
2.315387766	106.4548
2.314354087	106.4861
2.31332133	106.5017
2.312289495	106.5739
2.31125858	106.5017
2.310229117	106.5095
2.309200038	106.4704
2.308171875	106.322
2.307144627	106.4841
2.306118293	106.447
2.305092872	106.5505
2.304068363	106.5407
2.303044763	106.5251
2.302022073	106.5017
2.301000291	106.3923
2.299979415	106.5798
2.298959445	106.5388
2.297940379	106.6247
2.296922216	106.5486
2.295904955	106.6189
2.294888595	106.7517
2.29387366	106.7107
2.292859097	106.7029
2.291845431	106.7829
2.29083266	106.8591
2.289820785	106.8298
2.288809803	106.8357
2.287799713	106.7673
2.286790515	106.6247
2.285782206	106.8298
2.284774786	106.781
2.283768254	106.6892
2.282762608	106.7497
2.281757848	106.695
2.280753972	106.6267
2.279750978	106.7907
2.278748867	106.5857
2.277747636	106.8513
2.276747284	106.9392
2.275747811	106.8825
2.274749215	106.9216
2.273751494	106.9294
2.272754649	107.0779
2.271758677	107.0857
2.270763578	107.1677
2.269769866	107.0075
2.268776508	106.8552
2.267784019	107.0544
2.266792398	107.0857
2.265801644	107.1521
2.264811756	107.0075
2.263822732	107.1872
2.262834571	107.281
2.261847273	107.1599
2.260860836	107.113
2.259875259	107.2263
2.258890541	107.0271
2.257906681	107.0935
2.256923678	107.2107
2.25594153	107.3279
2.254960236	107.5349
2.253979796	107.3825
2.253000208	107.3786
2.252021471	107.3357
2.251043584	107.3396
2.250066546	107.3044
2.249090355	107.2849
2.248115012	107.1872
2.247140514	107.156
2.246167365	107.2107
2.245194554	107.3083
2.244222586	107.281
2.243251458	107.3279
2.242281171	107.1911
2.241311723	107.281
2.240343113	107.4138
2.23937534	107.5153
2.238408402	107.57
2.237442299	107.5622
2.23647703	107.4216
2.235512593	107.5661
2.234548988	107.6482
2.233586213	107.5974
2.232624267	107.4997
2.231663149	107.5271
2.230702859	107.4763
2.229743394	107.2849
2.228784755	107.3552
2.22782694	107.4919
2.226869947	107.4138
2.225913777	107.1872
2.224958427	107.1638
2.224003896	107.2068
2.223050679	107.3513
2.222097785	107.4685
2.221145707	107.5544
2.220194445	107.4997
2.219243997	107.656
2.218294362	107.6872
2.21734554	107.5818
2.21639753	107.6755
2.215450329	107.4958
2.214503938	107.613
2.213558355	107.6052
2.212613579	107.5778
2.211669609	107.5583
2.210726445	107.4294
2.209784084	107.5232
2.208842527	107.5935
2.207901771	107.7341
2.206961817	107.8161
2.206022662	107.8435
2.205084307	107.9372
2.204146749	107.9997
2.203209989	107.8278
2.202274024	107.7927
2.201338854	107.9685
2.200404963	107.8669
2.199471379	107.8669
2.198538587	107.906
2.197606587	107.8357
2.196675376	107.7497
2.195744954	107.8396
2.194815319	107.8552
2.193886472	108.156
2.192958411	108.3318
2.192031134	108.1403
2.191104641	108.238
2.190178931	108.3318
2.189254003	108.3591
2.188329856	108.4607
2.187406488	108.4099
2.1864839	108.2653
2.185562567	108.2068
2.184641533	108.3318
2.183721275	108.3864
2.182801792	108.406
2.181883083	108.195
2.180965147	108.1716
2.180047983	108.4294
2.17913159	108.4021
2.178215967	108.3708
2.177301113	108.1716
2.176387028	108.2927
2.175473709	108.3278
2.174561157	108.3786
2.17364937	108.5857
2.172738348	108.4646
2.171828089	108.4372
2.170918592	108.4763
2.170009856	108.4685
2.169101881	108.4333
2.168194666	108.4997
2.167288209	108.695
2.166382509	108.7263
2.165477567	108.6091
2.16457338	108.5935
2.163670416	108.6677
2.162767737	108.7341
2.161865811	108.7888
2.160964637	108.5974
2.160064214	108.5818
2.159164542	108.57
2.158265618	108.5857
2.157367442	108.4489
2.156470014	108.4802
2.155573332	108.7653
2.154677395	109.0153
2.153782203	108.8747
2.152887754	108.8786
2.151994048	109.1364
2.151101084	109.0661
2.150208861	109.0661
2.149317377	109.1443
2.148426632	109.0232
2.147536625	108.7966
2.146647355	108.9021
2.145758822	109.156
2.144871024	109.113
2.14398396	108.8786
2.143097629	108.8318
2.14221249	108.9216
2.141327623	108.7185
2.140443487	108.9138
2.139560081	108.7653
2.138677403	108.656
2.137795454	108.6169
2.136914232	108.7966
2.136033736	108.8903
2.135153965	108.8357
2.134274919	109.0232
2.133396596	109.0544
2.132518995	109.0818
2.131642117	109.363
2.130765959	109.3005
2.129890521	109.2888
2.129015803	109.2614
2.128141802	109.281
2.127268519	109.2341
2.126395952	109.0661
2.125524101	108.9372
2.124652964	108.9919
2.123782542	109.0505
2.122912832	109.0818
2.122043834	108.8903
2.121175997	109.1013
2.12030842	109.2653
2.119441553	109.2966
2.118575394	109.3435
2.117709942	109.2341
2.116845198	109.3122
2.115981159	109.4411
2.115117826	109.445
2.114255197	109.4685
2.113393271	109.3982
2.112532047	109.3161
2.111671525	109.5153
2.110811704	109.4919
2.109952583	109.3591
2.109094161	109.3786
2.108236437	109.5349
2.107379855	109.7107
2.106523524	109.7497
2.105667889	109.5661
2.104812949	109.531
2.103958703	109.5935
2.103105151	109.6482
2.10225229	109.656
2.101400121	109.82
2.100548642	109.8591
2.099697853	109.8903
2.098847754	109.8903
2.097998342	109.9528
2.097149617	109.7497
2.096301579	109.8591
2.095454226	109.9997
2.094607559	109.8513
2.093761575	109.6443
2.092916274	109.7966
2.092071655	110.0466
2.091227718	109.8825
2.090384461	110.07
2.089541885	110.1403
2.088699987	110.1716
2.087858767	110.1403
2.08701866	110.2888
2.086178794	110.2732
2.085339604	110.2067
2.084501088	110.2536
2.083663247	109.9607
2.082826078	110.0232
2.081989583	110.0349
2.081153758	110.0036
2.080318605	109.7693
2.079484122	109.5388
