Name:  Dolomite CaMg(CO3)2
Type:  Mineral
Class:   Carbonates
Subclass:   
Particle Size:  Fine  (Less than 2  Micrometers)
Sample No.:  dolomite.3
Owner:  JHU
Wavelength Range:  IR
Origin: Donated by Norma Vergo;  sample from Corydon, Indiana. 

Description: The hand sample was massive, multicrystalline, and pink 
in color and appeared to be pure dolomite. Microscopic examination 
confirmed this.



Measurement:  Transmission 
First Column:  X
Second Column:  Y  
X Units:  Wavelength (micrometers)
Y Units:  Transmittance (percent)
First X Value:  25.0442
Last X Value:  2.079
Number of X Values:  2287
Additional Information: dolomi3a.txt

25.04420302	32.5234
24.9237955	33.1874
24.80454022	33.7382
24.68642074	34.2226
24.5694209	35.0976
24.45358465	36.1288
24.3387763	37.1288
24.22504094	38.5702
24.11236361	40.3163
24.00072962	42.3124
23.89012454	44.5155
23.78053421	47.0936
23.67194472	49.953
23.56434244	52.8983
23.45771395	55.5174
23.35204611	58.3924
23.24732598	61.0155
23.14354087	63.4295
23.04067832	65.742
22.93872607	67.9842
22.83767211	70.033
22.7375046	71.7283
22.63821194	73.2674
22.53978272	74.7498
22.44220571	76.2439
22.3454699	77.7361
22.24956446	78.8865
22.15447875	80.0428
22.06020229	81.2361
21.96677306	82.2908
21.87408402	83.1482
21.7821739	84.0076
21.69103293	84.7849
21.60065148	85.4783
21.5110201	86.0877
21.42212949	86.7986
21.33397051	87.3845
21.24653416	87.9236
21.15981159	88.3572
21.0737941	88.7615
20.98847313	89.1404
20.90384024	89.5564
20.81988716	89.9783
20.73660571	90.1756
20.65398787	90.3513
20.57202575	90.5505
20.49071156	90.6638
20.41003766	90.7693
20.3299965	90.9588
20.25058069	91.117
20.1717829	91.2859
20.09359597	91.5125
20.01601281	91.6873
19.93906621	91.8406
19.8626695	92.0388
19.78685599	92.3005
19.71161901	92.5662
19.63695203	92.9656
19.56284859	93.3328
19.48930232	93.5828
19.41630698	93.9919
19.34385639	94.4695
19.27194448	94.7849
19.20056526	95.1687
19.12971284	95.4236
19.05938141	95.615
18.98956523	95.7234
18.92025868	95.7625
18.85145618	95.8787
18.78315226	96.0046
18.71534153	96.113
18.64801865	96.1521
18.58117838	96.197
18.51481556	96.2849
18.44892507	96.4158
18.38350191	96.5271
18.31854111	96.6218
18.25407111	96.7244
18.19002023	96.8123
18.12641726	96.9607
18.06325753	97.1208
18.00053642	97.24
17.93824937	97.406
17.8763919	97.6101
17.81495958	97.7517
17.75394803	97.9216
17.69335296	98.1404
17.63317011	98.2263
17.57339529	98.3415
17.51402436	98.4744
17.45505324	98.6091
17.39647791	98.7576
17.3382944	98.8435
17.28049878	98.9353
17.2230872	99.0564
17.16605584	99.197
17.10940093	99.363
17.05311876	99.4617
16.99720566	99.4978
16.94165801	99.5749
16.88647225	99.6345
16.83167317	99.7732
16.77720046	99.9236
16.72307919	100.1072
16.66930597	100.2624
16.61587747	100.3826
16.56279037	100.5378
16.51004141	100.6716
16.45762737	100.7663
16.40554507	100.8113
16.35379138	100.9294
16.30236319	100.9499
16.25125744	101.0242
16.20047111	101.1189
16.15000121	101.1931
16.0998448	101.2947
16.04999896	101.3767
16.00048641	101.3601
15.95125297	101.364
15.90232158	101.3874
15.85368947	101.3288
15.80535391	101.3337
15.75731218	101.3191
15.70956162	101.2312
15.6620996	101.2146
15.61492349	101.1765
15.56803074	101.1706
15.52141878	101.1081
15.47508511	101.0935
15.42902725	101.0339
15.38324273	100.9861
15.33772913	100.9812
15.29248405	100.9763
15.24750513	100.8923
15.20279002	100.7947
15.1583364	100.7341
15.114142	100.6345
15.07020455	100.5163
15.02652181	100.4285
14.98309158	100.3347
14.93991168	100.2068
14.89700213	100.1374
14.85431629	100.0564
14.81187438	99.9353
14.76967431	99.8005
14.72771402	99.717
14.68599147	99.6345
14.64450465	99.4861
14.60325156	99.4333
14.56223023	99.3611
14.52143873	99.2517
14.48087511	99.1775
14.44053748	99.0349
14.40042395	98.8708
14.36053266	98.762
14.32086177	98.5896
14.28140946	98.3733
14.24217393	98.1506
14.20315338	97.9006
14.16434607	97.4724
14.12575025	97.0466
14.0873642	96.6799
14.0491862	96.1624
14.01121458	95.4451
13.97344765	94.531
13.93590321	93.2752
13.89854065	91.324
13.8613779	88.3416
13.82441336	83.49
13.78764544	75.8533
13.75107258	66.9222
13.71469324	63.5057
13.67850587	69.8851
13.64250897	80.2517
13.60670103	88.2615
13.57108057	93.0427
13.53564612	95.6267
13.50039624	97.0427
13.46532947	97.9333
13.4304444	98.4197
13.39573962	98.7327
13.36121373	98.9182
13.32686536	99.0173
13.29269314	99.137
13.25869572	99.2097
13.22487175	99.2737
13.19121992	99.2776
13.15773892	99.3152
13.12442745	99.4099
13.09130135	99.3591
13.05832501	99.3074
13.02551438	99.3259
12.99286821	99.3288
12.96038529	99.262
12.92806437	99.2117
12.89590426	99.1799
12.86390376	99.1135
12.83206168	99.0647
12.80037684	99.0217
12.7688481	98.9138
12.73747429	98.844
12.70625427	98.8147
12.67518693	98.7092
12.64427113	98.529
12.61350579	98.4709
12.58290562	98.3591
12.55243781	98.1892
12.52211719	98.0491
12.4919427	97.9734
12.46191328	97.8381
12.43202789	97.7248
12.40228549	97.6335
12.37268507	97.4651
12.34322561	97.324
12.31390609	97.2737
12.28472554	97.1604
12.25568296	96.9832
12.22677738	96.8865
12.19800782	96.8269
12.16937334	96.6853
12.14087298	96.5471
12.1125058	96.407
12.08427087	96.2444
12.05616727	96.0662
12.02819409	95.9182
12.00035041	95.6995
11.97263534	95.4553
11.945048	95.2322
11.9175875	94.9822
11.8902671	94.5515
11.86305761	94.1272
11.83597236	93.5413
11.80901051	92.7625
11.78217122	91.613
11.75545365	89.4802
11.72885698	87.1057
11.70238038	88.0159
11.67602305	89.3499
11.64978419	88.492
11.62366299	86.9978
11.59765866	85.116
11.57177043	82.7464
11.54599752	79.5672
11.52033916	75.3465
11.49479458	69.5194
11.46936304	61.3929
11.44404378	51.2889
11.41883606	40.7265
11.39373914	31.3554
11.3687523	24.6933
11.34387482	22.0693
11.31910597	24.5224
11.29444505	32.3554
11.26990406	43.6156
11.24545684	55.7948
11.22111545	66.7772
11.19687921	75.3265
11.17274743	81.1766
11.14871946	84.867
11.12479461	87.1389
11.10097222	88.6375
11.07725165	89.7092
11.05363222	90.5061
11.03011331	91.2019
11.00669427	91.7966
10.98337447	92.2561
10.96015327	92.6462
10.93703005	93.0349
10.9140042	93.3757
10.89107509	93.6096
10.86824213	93.8479
10.8455047	94.0906
10.82286221	94.2546
10.80031407	94.3992
10.77785969	94.5671
10.75549848	94.7385
10.73322986	94.8796
10.71106474	95.0647
10.68897956	95.1912
10.66698525	95.3069
10.64508128	95.4465
10.62326708	95.5837
10.6015421	95.6663
10.5799058	95.7732
10.55835763	95.9241
10.53689705	96.032
10.51552354	96.0623
10.49423657	96.1746
10.4730356	96.281
10.45192012	96.3328
10.43088962	96.3855
10.40994358	96.4075
10.38908149	96.3918
10.36830285	96.3777
10.34760717	96.3479
10.32699394	96.3035
10.30646267	96.2512
10.28601287	96.2288
10.26564407	96.1428
10.24535578	96.0315
10.22514752	95.9905
10.20502924	95.9216
10.1849796	95.8225
10.16500858	95.7371
10.14511574	95.6697
10.12530059	95.6052
10.10556271	95.532
10.08590162	95.4519
10.0663169	95.3655
10.04680808	95.3005
10.02737473	95.2693
10.00801642	95.2327
9.98873271	95.1218
9.969523168	95.0525
9.950387369	94.988
9.931324888	94.8811
9.912335307	94.7659
9.893427994	94.6995
9.874582922	94.6267
9.855809507	94.531
9.83710734	94.4939
9.818476015	94.4304
9.799915133	94.3425
9.781424293	94.2517
9.7630031	94.2039
9.744651161	94.0955
9.726368087	94.0247
9.70815349	93.9534
9.690006986	93.8557
9.671928196	93.7395
9.653916739	93.6721
9.635972241	93.6111
9.618094328	93.4768
9.600282632	93.3543
9.582536785	93.2376
9.564856422	93.1199
9.547241181	93.0086
9.529690704	92.8811
9.512204634	92.6585
9.494782617	92.4412
9.477424301	92.2341
9.460138288	92.0212
9.4429063	91.7859
9.425736975	91.5652
9.408629972	91.3889
9.391584952	91.1819
9.374601579	90.9539
9.35767952	90.76
9.340818443	90.5764
9.324018018	90.3806
9.307277919	90.2522
9.290597822	90.0857
9.273977405	89.9299
9.257416348	89.7683
9.240914333	89.6541
9.224471046	89.4558
9.208086173	89.3006
9.191759404	89.2009
9.17549043	89.0779
9.159278945	88.9256
9.143124645	88.7581
9.127027227	88.5125
9.110986392	88.2405
9.095001842	88.1209
9.079073281	88.2737
9.06320863	88.4495
9.04739114	88.5408
9.031628764	88.6023
9.015921215	88.5862
9.000268208	88.4988
8.984669459	88.4485
8.969124685	88.3811
8.953633608	88.2991
8.93819595	88.2659
8.922811435	88.2381
8.907479789	88.1843
8.89220074	88.1038
8.876974017	88.051
8.861799353	87.9549
8.846676481	87.8601
8.831605135	87.7561
8.816585054	87.6214
8.801615977	87.4251
8.786697643	87.2464
8.771829795	87.0676
8.757012178	86.8616
8.742244536	86.6707
8.727526619	86.5574
8.712858175	86.426
8.69824652	86.2859
8.683676252	86.1883
8.669154714	86.0769
8.654681663	85.9285
8.640256858	85.784
8.625880055	85.6365
8.611551018	85.461
8.597269507	85.2537
8.583035287	85.0674
8.568848124	84.8643
8.554707784	84.6465
8.540614036	84.4619
8.52656665	84.2715
8.512565398	84.0388
8.498610052	83.8074
8.484700388	83.5818
8.470836182	83.3631
8.45701721	83.1673
8.443243252	82.9905
8.429514089	82.7976
8.415829502	82.6045
8.402189274	82.4373
8.388593191	82.3094
8.375041038	82.18
8.361539594	82.0645
8.348074642	81.9451
8.334652987	81.7996
8.32127442	81.6253
8.307938734	81.4158
8.294645723	81.177
8.281395183	80.9248
8.268186911	80.6592
8.255020704	80.3758
8.241896361	80.0613
8.228813685	79.7249
8.215772476	79.4053
8.202772537	79.044
8.189813674	78.6678
8.176895691	78.3282
8.164018395	78.0147
8.151188239	77.7088
8.138391724	77.4444
8.125635323	77.1912
8.11291885	76.9346
8.100242116	76.6834
8.087604937	76.41
8.075007126	76.1077
8.062448501	75.8184
8.049928879	75.5081
8.037448078	75.1888
8.025005918	74.8709
8.012602221	74.5489
8.000236807	74.1937
7.9879095	73.8401
7.975620124	73.4988
7.963368505	73.1356
7.951154468	72.7762
7.938977841	72.4051
7.926838452	72.0255
7.914736131	71.6378
7.902670708	71.2693
7.890642014	70.8878
7.878649883	70.4708
7.866694148	70.0311
7.854780812	69.5958
7.842897355	69.1336
7.831049799	68.638
7.819237984	68.1361
7.807461747	67.6241
7.795720929	67.1019
7.784015369	66.5809
7.772344909	66.0726
7.760709391	65.5587
7.749108659	65.0462
7.737542556	64.5509
7.726010929	64.0352
7.714513623	63.5069
7.703050485	62.9815
7.691621363	62.4627
7.680226106	61.9356
7.668864563	61.4237
7.657536586	60.8934
7.646242025	60.3319
7.634980733	59.7318
7.623752563	59.117
7.61255737	58.4725
7.601395008	57.8192
7.590265333	57.161
7.579173946	56.4774
7.568109199	55.7745
7.557076711	55.0704
7.546076342	54.3429
7.535107952	53.578
7.524171401	52.806
7.51326655	52.0336
7.502393263	51.2677
7.491551403	50.5018
7.480740833	49.7247
7.469961418	48.9276
7.459213023	48.1202
7.448495516	47.3192
7.437808762	46.4891
7.42715263	45.6122
7.416526989	44.7013
7.405931707	43.7716
7.395366655	42.8068
7.384831703	41.809
7.374326724	40.799
7.363851589	39.7716
7.353406171	38.7177
7.342990345	37.6457
7.332603984	36.5714
7.322252325	35.4884
7.311924506	34.3954
7.30162578	33.3205
7.291356025	32.2499
7.281115117	31.1615
7.270902937	30.0712
7.260719363	28.9784
7.250564275	27.8469
7.240437554	26.7199
7.230339081	25.5978
7.220268738	24.466
7.210226408	23.2988
7.200211974	22.1291
7.19022532	20.9428
7.18026633	19.7368
7.17033489	18.4953
7.160436013	17.2568
7.150559317	16.0227
7.140709829	14.812
7.130887439	13.6679
7.121092034	12.5979
7.111323503	11.6445
7.101581735	10.8799
7.091866622	10.1985
7.082178053	9.4414
7.07251592	8.5696
7.062880115	7.6684
7.053270531	6.7854
7.04368706	5.9346
7.034129597	5.1348
7.024598035	4.4077
7.01509227	3.7715
7.005612196	3.2539
6.99615771	2.8232
6.986728709	2.4941
6.977325089	2.2471
6.967946748	2.0996
6.958593585	2.022
6.949265497	2.0005
6.939962385	2.0068
6.930688952	2.0249
6.921435478	2.0364
6.912206681	2.081
6.903002461	2.1401
6.893822721	2.2278
6.884667364	2.335
6.875536292	2.4712
6.866429409	2.6035
6.857346618	2.7519
6.848287825	2.9092
6.839252935	3.0884
6.830241852	3.2519
6.821254483	3.4521
6.812290735	3.6409
6.803350514	3.844
6.794433728	4.041
6.785540285	4.271
6.776670093	4.5151
6.767823062	4.7512
6.7589991	5.008
6.750198118	5.2842
6.741420026	5.5635
6.732664735	5.874
6.723932156	6.2065
6.715226709	6.5703
6.706539278	6.9726
6.697874296	7.4387
6.689231675	7.9531
6.680611329	8.5459
6.672013173	9.2158
6.663437121	9.9687
6.654883087	10.8108
6.646350987	11.7268
6.637840737	12.6992
6.629352253	13.7942
6.620885451	14.936
6.612440248	16.1176
6.604016563	17.3378
6.595614312	18.5754
6.587233415	19.8554
6.578873789	21.142
6.570535354	22.457
6.56221803	23.8207
6.553921736	25.1525
6.545646392	26.4946
6.537391921	27.8459
6.529158241	29.184
6.520945276	30.5021
6.512757189	31.8759
6.504585407	33.186
6.496434107	34.4396
6.488303211	35.7816
6.480192643	37.175
6.472102327	38.5243
6.464032186	39.8734
6.455982145	41.1957
6.44795213	42.5082
6.439942066	43.7765
6.431951879	45.0419
6.423981494	46.2736
6.416030838	47.4003
6.408099838	48.6576
6.400188422	50.0575
6.392296516	51.3273
6.384424048	52.5509
6.376570948	53.7152
6.368737143	54.8468
6.360922563	56.0018
6.353127136	57.0394
6.345350793	57.9081
6.337593464	58.8272
6.329855078	59.7166
6.322139564	60.4837
6.314438848	61.1932
6.30675687	61.8524
6.29909356	62.4688
6.291448851	63.0489
6.283822676	63.5824
6.276214965	64.0667
6.268625654	64.5301
6.261054675	65.0272
6.253501961	65.5311
6.245967447	66.0291
6.238451067	66.4981
6.230952756	66.9876
6.223472449	67.5028
6.21601008	68.0157
6.208565585	68.5479
6.201142747	69.116
6.1937338	69.6436
6.186342535	70.1121
6.178968891	70.7598
6.171612803	71.4854
6.164274209	72.0401
6.156953047	72.5936
6.149649255	73.1873
6.14236277	73.6736
6.135093533	74.1043
6.12784148	74.5499
6.120606552	74.8672
6.113388688	75.1202
6.106187828	75.5496
6.099003911	75.9991
6.091836878	76.3624
6.084686669	76.721
6.077553226	76.9793
6.070436489	77.3016
6.063336399	77.7249
6.056252899	77.9522
6.049185931	78.0096
6.042135436	78.4637
6.035101357	78.993
6.02808727	79.3484
6.021085843	79.6136
6.01410066	79.8621
6.007131667	80.1751
6.000178805	80.491
5.99324202	80.6658
5.986321256	80.9121
5.979416457	81.2176
5.972527568	81.4119
5.965654534	81.6475
5.9587973	81.9949
5.951955813	82.2373
5.945130017	82.4265
5.938319859	82.5008
5.931525286	82.8055
5.924746243	83.2461
5.917982678	83.5418
5.911234538	83.8279
5.904501769	84.0262
5.89778432	84.0459
5.891082139	84.2754
5.884395172	84.4837
5.87772337	84.6834
5.871066679	85.0938
5.864428488	85.3386
5.85780186	85.5584
5.851190191	85.8118
5.84459343	86.031
5.838011527	86.2132
5.831444431	86.3555
5.824892094	86.4102
5.818354465	86.6072
5.811831494	86.9502
5.805323133	87.1873
5.798829332	87.3611
5.792350043	87.5254
5.785885217	87.6765
5.779434806	87.8154
5.772998761	87.8889
5.766577035	87.8877
5.760169579	88.1445
5.753776347	88.4021
5.747397291	88.511
5.741032364	88.7039
5.734681519	88.8904
5.728344709	89.0391
5.722021888	89.1619
5.715713009	89.2615
5.709421287	89.3792
5.703140149	89.5769
5.696872816	89.7434
5.690619242	89.8269
5.684379382	89.9588
5.678153192	90.0469
5.671940626	90.1619
5.66574164	90.3152
5.659556189	90.4046
5.653384229	90.4656
5.647225716	90.5342
5.641080605	90.543
5.634948854	90.7146
5.628830419	90.8701
5.622725256	90.9421
5.616633323	90.9905
5.610557723	91.0501
5.604492113	91.085
5.598439603	91.116
5.592400152	91.1541
5.586373717	91.1179
5.580360257	91.0098
5.574359729	90.9905
5.568372092	90.9588
5.562397304	90.8076
5.556435324	90.5798
5.550486112	90.2979
5.544549625	89.9422
5.538625823	89.4627
5.532714665	88.9092
5.526816112	88.3115
5.520930122	87.7923
5.515056656	87.3987
5.509195674	87.1504
5.503347136	87.0081
5.497511002	86.9834
5.491687233	87.0799
5.48587579	87.3506
5.480076633	87.8093
5.474289725	88.5176
5.468518015	89.3318
5.462755479	90.1404
5.457005076	90.9104
5.451266765	91.5628
5.445540511	92.0899
5.439826274	92.5427
5.434124016	92.917
5.428433701	93.2156
5.422755291	93.4402
5.417088748	93.7197
5.411434035	93.9978
5.405791116	94.1975
5.400159953	94.3928
5.394540509	94.5693
5.388932749	94.7141
5.383336635	94.8513
5.377752132	95.0007
5.372179203	95.1331
5.366617813	95.2585
5.361067925	95.3728
5.355529504	95.4578
5.350002515	95.5312
5.344486921	95.6689
5.338982689	95.8132
5.333492627	95.915
5.328011006	96.0144
5.32254064	96.1101
5.317081497	96.198
5.31163354	96.292
5.306196736	96.3682
5.30077105	96.4697
5.295356449	96.5295
5.289952898	96.6221
5.284560364	96.7119
5.279178813	96.8105
5.273808212	96.9109
5.268448526	97.0088
5.263099724	97.0869
5.257761771	97.1623
5.252434635	97.2607
5.247118283	97.3367
5.241812682	97.4131
5.236517799	97.4775
5.231233603	97.5615
5.225960061	97.6404
5.220697141	97.699
5.21544481	97.7488
5.210203036	97.8372
5.204974498	97.9158
5.19975374	97.9736
5.194543444	98.0488
5.189343579	98.1296
5.184154115	98.1924
5.178975019	98.2429
5.173806261	98.3174
5.168647809	98.3867
5.163499634	98.4499
5.158361704	98.5124
5.153233989	98.5745
5.148116459	98.5889
5.143009082	98.665
5.137911829	98.7344
5.13282467	98.7971
5.127747575	98.8652
5.122680514	98.9148
5.117623458	98.9729
5.112576376	99.0185
5.107539239	99.0566
5.102512018	99.0964
5.097494683	99.1514
5.092487206	99.1963
5.087489558	99.2392
5.082504292	99.2783
5.077526209	99.3191
5.072557868	99.3457
5.06759924	99.3535
5.062650297	99.3877
5.057711011	99.4473
5.052781354	99.5107
5.047861297	99.5754
5.042950812	99.6311
5.038049872	99.7029
5.033158448	99.749
5.028276513	99.7969
5.023404039	99.8288
5.018541	99.8533
5.013687367	99.8996
5.008843113	99.9558
5.004010715	100.0146
4.999185133	100.0486
4.994368849	100.0918
4.989561837	100.1262
4.984764069	100.167
4.979975518	100.2141
4.97519616	100.2283
4.970425966	100.2666
4.96566491	100.3083
4.960912967	100.3369
4.95617011	100.3691
4.951436313	100.4072
4.94671155	100.4372
4.941995795	100.4756
4.937289023	100.509
4.932591209	100.5481
4.927902325	100.6006
4.923222347	100.6345
4.918551251	100.666
4.913889009	100.7078
4.909235598	100.7363
4.904590991	100.7488
4.899955165	100.7871
4.895328095	100.8144
4.890712146	100.8525
4.886102507	100.8779
4.88150155	100.9099
4.876909249	100.9211
4.87232558	100.9441
4.86775052	100.9736
4.863184043	101.0202
4.858626126	101.043
4.854076745	101.071
4.849535875	101.1084
4.845003493	101.1406
4.840479575	101.165
4.835964098	101.1982
4.831457037	101.2265
4.826958369	101.2483
4.822468072	101.2839
4.81798612	101.292
4.813512492	101.3232
4.809047164	101.3484
4.804590113	101.3855
4.800141316	101.4001
4.79570075	101.4118
4.791268392	101.4558
4.78684422	101.4792
4.782430498	101.5049
4.778022625	101.5329
4.773622869	101.5683
4.769231209	101.5771
4.764847623	101.5957
4.760472086	101.6208
4.756104579	101.6179
4.751745078	101.6335
4.747393562	101.6736
4.743050009	101.7002
4.738714396	101.7146
4.734386703	101.7419
4.730066907	101.7624
4.725754987	101.7859
4.721450921	101.7871
4.717154688	101.8103
4.712866266	101.822
4.708585635	101.8555
4.704312773	101.8728
4.700047658	101.8779
4.695790271	101.8786
4.691540589	101.8664
4.687298593	101.8669
4.68306426	101.8681
4.67883976	101.8603
4.67462069	101.8689
4.670409221	101.8389
4.666205334	101.8301
4.662009009	101.8132
4.657820224	101.8183
4.65363896	101.824
4.649465195	101.7995
4.645298911	101.8125
4.641140087	101.8105
4.636988702	101.8408
4.632844738	101.8796
4.628708174	101.8943
4.62457899	101.8952
4.620457167	101.9004
4.616342684	101.9316
4.612235523	101.9521
4.608135664	101.9746
4.604043086	101.9997
4.599957772	102.0342
4.595879702	102.0644
4.591808856	102.0788
4.587745215	102.1094
4.58368876	102.1416
4.57964157	102.1736
4.575599426	102.2156
4.571564412	102.2409
4.567536508	102.2605
4.563515696	102.2834
4.559501956	102.3201
4.555495271	102.3186
4.551495621	102.3323
4.547502989	102.3503
4.543517355	102.3581
4.539538701	102.3811
4.535567009	102.3899
4.531602261	102.4079
4.527644439	102.426
4.523693523	102.4411
4.519749497	102.4621
4.515814382	102.4909
4.511884077	102.5285
4.507960608	102.5613
4.504043956	102.5744
4.500134104	102.5906
4.496231034	102.6096
4.492334729	102.6194
4.488445171	102.612
4.484562343	102.6325
4.480686226	102.6628
4.476816804	102.6389
4.47295406	102.6277
4.469097975	102.6418
4.465248534	102.6531
4.461405718	102.6687
4.45756951	102.6711
4.453739894	102.6745
4.449916853	102.6853
4.44610037	102.676
4.442290427	102.6799
4.438487009	102.6804
4.434690097	102.676
4.430899676	102.6897
4.42711573	102.7077
4.423340197	102.717
4.419569145	102.7326
4.415804518	102.7527
4.412046298	102.781
4.408294471	102.7951
4.404549018	102.802
4.400809925	102.8259
4.397077175	102.8601
4.393350752	102.8708
4.389630639	102.8611
4.385916821	102.8786
4.382209282	102.8904
4.378508006	102.9065
4.374812977	102.9226
4.371124179	102.9206
4.367441596	102.9348
4.363765214	102.9538
4.360095015	102.9607
4.356430985	102.9797
4.352773108	102.9875
4.349121369	102.9807
4.345475751	102.9953
4.341836241	102.9939
4.338202821	102.989
4.334577357	102.9719
4.330956072	102.9787
4.327340832	102.9836
4.323731623	103.0022
4.320128429	102.9968
4.316531235	102.989
4.312940028	103.01
4.30935479	103.0368
4.305775509	103.0339
4.302202168	103.0412
4.298634754	103.0725
4.29507325	103.0764
4.291517644	103.095
4.287967919	103.1111
4.284424062	103.1286
4.280886058	103.1203
4.277353892	103.1501
4.27382755	103.1511
4.270307018	103.1408
4.266792281	103.114
4.263283325	103.1135
4.259780136	103.1257
4.256282699	103.0881
4.252791	103.1125
4.249306832	103.156
4.245826565	103.2009
4.242351994	103.2087
4.238883105	103.2121
4.235419885	103.2234
4.231962319	103.2239
4.228510393	103.2107
4.225064094	103.2053
4.221623408	103.2097
4.218188322	103.2077
4.214758821	103.2092
4.211334892	103.2092
4.207916522	103.197
4.204503696	103.1867
4.201096402	103.1931
4.197694626	103.1931
4.194300114	103.1985
4.190909331	103.2053
4.187524026	103.2068
4.184144186	103.2082
4.180769797	103.2121
4.177400846	103.2038
4.174037321	103.1872
4.170679208	103.1824
4.167326493	103.1819
4.163979165	103.1858
4.16063721	103.1858
4.157300615	103.2043
4.153969367	103.197
4.150643454	103.176
4.147322862	103.1833
4.144007579	103.198
4.140697592	103.1814
4.137392888	103.1789
4.134093455	103.1882
4.130799281	103.1784
4.127510352	103.1902
4.124226656	103.1877
4.120948181	103.1897
4.117674914	103.1721
4.114408535	103.1745
4.111145645	103.1692
4.107887925	103.154
4.104635365	103.1599
4.101387951	103.156
4.098145671	103.1531
4.094908514	103.1462
4.091676466	103.134
4.088449517	103.1306
4.085227653	103.1003
4.082010864	103.1033
4.078799136	103.0715
4.075592459	103.0476
4.072390819	103.0222
4.069194206	103.0183
4.066002607	102.9807
4.062816011	102.9612
4.059634406	102.946
4.056457779	102.9167
4.053286121	102.862
4.050119418	102.8454
4.046957659	102.8049
4.043800833	102.7815
4.040648928	102.7087
4.037503563	102.6638
4.034361463	102.6155
4.031224251	102.5315
4.028091913	102.4573
4.024964439	102.384
4.021841819	102.2932
4.018724039	102.1726
4.01561109	102.0129
4.012502959	101.8782
4.009399637	101.6926
4.00630111	101.4944
4.00320737	101.2419
4.000118404	100.9983
3.997034201	100.7224
3.99395475	100.4094
3.990880041	100.0574
3.987810062	99.6116
3.984744803	99.072
3.981684252	98.4031
3.9786284	97.6438
3.975577234	96.866
3.972530744	96.1648
3.96948892	95.6492
3.966451751	95.3484
3.963420797	95.2126
3.960392903	95.1731
3.957369631	95.1873
3.954350972	95.2507
3.951336915	95.3191
3.948327449	95.3884
3.945322564	95.5022
3.942322249	95.6702
3.939326493	95.821
3.936335288	95.9749
3.933348621	96.1287
3.930366483	96.2883
3.927388864	96.4377
3.924415753	96.5808
3.921447139	96.7644
3.918483014	97.01
3.915523366	97.3249
3.912568186	97.7205
3.909617463	98.1687
3.906671188	98.5637
3.90372935	98.9167
3.900791939	99.2287
3.897858945	99.4748
3.894930359	99.6301
3.892007684	99.7009
3.889087881	99.7541
3.886172454	99.7991
3.883261396	99.8772
3.880354695	99.9412
3.877452343	100.0471
3.874554329	100.1521
3.871660644	100.2536
3.868771278	100.3713
3.865886222	100.5124
3.863005465	100.6965
3.860128998	100.8865
3.857256812	101.1438
3.854388896	101.3904
3.851525243	101.6257
3.848665841	101.782
3.845812161	101.8542
3.842961232	101.9172
3.840114528	101.9211
3.837272037	101.8928
3.834433752	101.8367
3.831599662	101.76
3.828769759	101.6492
3.825944033	101.5427
3.823122474	101.4099
3.820305074	101.2268
3.817491824	101.0325
3.814682714	100.8596
3.811877735	100.6814
3.809076878	100.572
3.806280134	100.5535
3.803487494	100.6501
3.800698949	100.7737
3.797914489	100.928
3.795134107	101.1096
3.792357792	101.2981
3.789585537	101.4827
3.786817332	101.6365
3.784053167	101.802
3.781293036	101.9392
3.778538356	102.0837
3.77578626	102.217
3.773038171	102.3308
3.770294079	102.448
3.767553976	102.5544
3.764817852	102.6286
3.7620857	102.7248
3.759357511	102.8308
3.756633275	102.8923
3.753912985	102.9685
3.751196632	103.0383
3.748484207	103.1267
3.745775701	103.1643
3.743071107	103.1882
3.740370416	103.2346
3.73767362	103.2737
3.734980709	103.2868
3.732291676	103.322
3.729606512	103.3161
3.726925208	103.3264
3.724247758	103.3503
3.721574151	103.3542
3.718904381	103.3557
3.716238438	103.3708
3.713577694	103.3616
3.71091938	103.3889
3.708264869	103.3679
3.705614154	103.365
3.702967225	103.365
3.700324074	103.4011
3.697684695	103.4123
3.695049078	103.3835
3.692417215	103.3904
3.689789099	103.4045
3.687164722	103.4236
3.684544075	103.4241
3.68192715	103.4143
3.67931394	103.4153
3.676704437	103.4177
3.674098633	103.3962
3.67149652	103.3835
3.66889809	103.3943
3.666303336	103.3928
3.663712249	103.3767
3.661124822	103.3796
3.658541047	103.406
3.655960916	103.4158
3.653384422	103.3786
3.65081289	103.3811
3.648243644	103.3777
3.645678012	103.3708
3.643115986	103.3811
3.640557559	103.3581
3.638002722	103.3459
3.635451469	103.3376
3.632903791	103.3366
3.630359682	103.3493
3.627819133	103.3318
3.625282138	103.3127
3.622748688	103.3205
3.620218777	103.3147
3.617692397	103.3205
3.615169541	103.2932
3.6126502	103.3142
3.610135673	103.3074
3.607623341	103.3327
3.605114504	103.3093
3.602609154	103.2947
3.600107283	103.3044
3.597608885	103.3054
3.595113953	103.279
3.592622478	103.26
3.590134454	103.2527
3.587649874	103.2615
3.585168731	103.2146
3.582691017	103.2131
3.580216725	103.2292
3.577745848	103.2224
3.57527838	103.1872
3.572814313	103.1491
3.57035364	103.1355
3.567896354	103.1448
3.565442448	103.1296
3.562991916	103.1384
3.560544749	103.0959
3.558100942	103.053
3.555660487	103.0388
3.553223378	103.0163
3.550790868	102.9807
3.548360427	102.9753
3.545933311	102.9768
3.543509513	102.9416
3.541089027	102.9475
3.538671844	102.9324
3.53625796	102.9236
3.533847367	102.906
3.531440058	102.8791
3.529036026	102.8259
3.526635266	102.7908
3.524237769	102.7209
3.52184353	102.6736
3.519452542	102.6238
3.517064798	102.5471
3.514680292	102.4695
3.512299017	102.3552
3.509920967	102.2424
3.507546135	102.1159
3.505174514	101.9577
3.502806098	101.7986
3.500440881	101.635
3.498078855	101.4577
3.495720015	101.2385
3.493365575	101.0583
3.491013085	100.8635
3.488663762	100.6833
3.486317598	100.5056
3.483974588	100.3933
3.481634725	100.2307
3.479298003	100.0705
3.476964415	99.9158
3.474633956	99.7966
3.472306619	99.6623
3.469982397	99.5505
3.467661284	99.4573
3.465343275	99.3616
3.463028363	99.2712
3.460716541	99.2058
3.458407804	99.156
3.456102146	99.1003
3.453799559	99.0627
3.451500039	99.0603
3.449203579	99.0994
3.446910172	99.2195
3.444619814	99.3948
3.442332497	99.6291
3.440048216	99.8533
3.437768146	100.0896
3.435489916	100.3093
3.433214704	100.4949
3.430942504	100.6838
3.428673309	100.8264
3.426407114	100.8952
3.424143913	100.9709
3.421883699	101.0354
3.419626467	101.0515
3.417372212	101.0915
3.415120926	101.1238
3.412872605	101.1433
3.410627242	101.1628
3.408384831	101.1877
3.406145367	101.2244
3.403908845	101.2556
3.401675257	101.3044
3.399444599	101.3616
3.397216864	101.3811
3.394992047	101.4221
3.392770143	101.4763
3.390551144	101.5134
3.388335047	101.5339
3.386121844	101.5784
3.383912676	101.6233
3.381705245	101.6545
3.379500692	101.6863
3.377299012	101.7053
3.375100198	101.6941
3.372904246	101.6584
3.370711149	101.6247
3.368520903	101.5998
3.366333501	101.5061
3.364148938	101.4612
3.361967208	101.3796
3.359788306	101.3005
3.357612227	101.2385
3.355438965	101.1721
3.353268515	101.1311
3.35110087	101.0837
3.348937148	101.0242
3.346775098	100.9748
3.344615837	100.9573
3.342459362	100.9919
3.340305665	100.9646
3.338154741	100.9685
3.336006587	100.9577
3.333861195	100.988
3.33171856	100.9768
3.329578678	100.9748
3.327441544	100.9177
3.32530715	100.8845
3.323175494	100.8337
3.321046568	100.7795
3.318920368	100.7351
3.31679689	100.6501
3.314676126	100.5842
3.312558073	100.5486
3.310442725	100.5564
3.308330077	100.6286
3.306220124	100.8083
3.304112861	101.0237
3.302008281	101.3367
3.299906382	101.656
3.297808244	101.9709
3.295711686	102.2659
3.293617792	102.5134
3.291526557	102.6721
3.289437976	102.7698
3.287352045	102.803
3.285268756	102.8825
3.283188107	102.9177
3.281110091	102.9704
3.279034705	102.9612
3.276961942	102.9651
3.274891798	102.9587
3.272824267	102.9656
3.270759346	102.9944
3.268697029	103.0158
3.26663731	103.0144
3.264580186	103.029
3.262525652	103.0144
3.260473701	103.03
3.25842433	103.0315
3.256377534	103.0193
3.254333308	103.0212
3.252291646	103.0408
3.250252545	103.0412
3.248217054	103.0393
3.246183057	103.0486
3.244151606	103.0647
3.242122696	103.0451
3.240096322	103.0373
3.238072479	103.0652
3.236051163	103.0744
3.234032369	103.0959
3.232016093	103.0896
3.230002329	103.0959
3.227991073	103.0959
3.22598232	103.0549
3.223976065	103.0681
3.221972305	103.0779
3.219971033	103.1013
3.217972246	103.092
3.215975939	103.0974
3.213982108	103.0993
3.211990747	103.1135
3.210001852	103.1072
3.208015419	103.1155
3.206031443	103.1365
3.204049919	103.1584
3.202070843	103.154
3.200095235	103.1365
3.19812104	103.1448
3.196149279	103.1247
3.194179949	103.1155
3.192213043	103.1023
3.190248559	103.1169
3.18828649	103.0886
3.186326834	103.094
3.184369586	103.0984
3.18241474	103.1013
3.180462293	103.1018
3.17851224	103.1208
3.176564577	103.1213
3.1746193	103.1057
3.172676403	103.1135
3.170735883	103.1116
3.168797736	103.1111
3.166861956	103.1135
3.164928541	103.1037
3.162997484	103.1169
3.161068783	103.094
3.159142432	103.0998
3.157218427	103.1057
3.155296765	103.1213
3.153378435	103.1384
3.151461443	103.1286
3.14954678	103.1618
3.147634443	103.1448
3.145724426	103.1252
3.143816726	103.0979
3.141911338	103.1306
3.140008258	103.1579
3.138107483	103.1521
3.136209007	103.1658
3.134312827	103.1369
3.132418938	103.1345
3.130527337	103.1291
3.128638019	103.1325
3.126750981	103.1741
3.124866217	103.1599
3.122984699	103.1892
3.121104471	103.1975
3.119226507	103.2517
3.1173508	103.2248
3.115477349	103.258
3.113606148	103.2756
3.111737193	103.2483
3.10987048	103.2536
3.108006006	103.2991
3.106143766	103.2771
3.104283756	103.2361
3.102425973	103.2566
3.100570412	103.2634
3.098717069	103.2566
3.096865941	103.2771
3.095017023	103.2693
3.093170311	103.3122
3.091325802	103.3181
3.089483491	103.2898
3.087643375	103.2741
3.085805449	103.3132
3.08396971	103.3337
3.082136155	103.3718
3.080304778	103.3581
3.078476524	103.3581
3.076649492	103.3659
3.074824627	103.3689
3.073001926	103.3913
3.071181385	103.4275
3.069363	103.4577
3.067546766	103.4558
3.065732681	103.4587
3.06392074	103.4607
3.06211094	103.4665
3.060303276	103.448
3.058497745	103.4568
3.056694344	103.4616
3.054893068	103.4607
3.053093914	103.446
3.051296877	103.4783
3.049501955	103.4968
3.047709144	103.4724
3.045918439	103.4949
3.044129837	103.4685
3.042343335	103.4743
3.040558928	103.4704
3.038776613	103.4841
3.036996386	103.4968
3.035219166	103.5173
3.033443104	103.5534
3.031669119	103.572
3.029897208	103.574
3.028127367	103.5564
3.026359592	103.5525
3.02459388	103.5476
3.022830228	103.5466
3.021068631	103.5193
3.019309085	103.5827
3.017551589	103.6199
3.015796137	103.6413
3.014042726	103.6599
3.012291354	103.6677
3.010542015	103.7126
3.008794707	103.7429
3.007049426	103.7751
3.005306169	103.7898
3.003564931	103.8406
3.00182571	103.8884
3.000088503	103.9372
2.998353304	103.947
2.996620112	103.9753
2.994888923	104.0281
2.993160628	104.0661
2.991433432	104.1218
2.989708228	104.2029
2.987985013	104.238
2.986263784	104.2976
2.984544536	104.3835
2.982827267	104.4372
2.981111973	104.4695
2.97939865	104.5329
2.977687296	104.5945
2.975977906	104.6482
2.974270478	104.7175
2.972565009	104.7907
2.970861493	104.8513
2.96915993	104.9187
2.967460314	104.9802
2.965763522	105.0632
2.964067792	105.1208
2.962373999	105.1892
2.960682141	105.2614
2.958992215	105.3337
2.957304216	105.3806
2.955618142	105.445
2.95393399	105.57
2.952251756	105.6316
2.950571437	105.6638
2.94889303	105.7312
2.947216531	105.7536
2.945541937	105.8054
2.943869245	105.8669
2.942198452	105.947
2.940529554	105.9372
2.938862549	106.0271
2.937197432	106.0954
2.935534201	106.0837
2.933872853	106.1882
2.932213384	106.196
2.930555792	106.1999
2.928900072	106.2419
2.927246222	106.2702
2.925595095	106.3415
2.923944975	106.3913
2.922296715	106.4431
2.920650312	106.4265
2.919005763	106.4538
2.917363066	106.49
2.915722216	106.4968
2.91408321	106.5359
2.912446047	106.5017
2.910810722	106.5114
2.909177232	106.5173
2.907545575	106.4929
2.905915747	106.4538
2.904287745	106.404
2.902661566	106.4294
2.901037208	106.4138
2.899414666	106.4021
2.897793938	106.4187
2.896175022	106.3864
2.894557913	106.3405
2.892942609	106.2673
2.891329106	106.2663
2.889717403	106.2517
2.888107495	106.1833
2.886500214	106.2341
2.884893888	106.2575
2.883289349	106.2546
2.881686594	106.1345
2.880085619	106.1931
2.878486423	106.2312
2.876889001	106.114
2.875293352	106.0759
2.873699471	106.0525
2.872107357	106.0046
2.870517006	105.9548
2.868928415	105.9138
2.867341582	105.8142
2.865756502	105.7927
2.864173175	105.7673
2.862591596	105.7693
2.861011762	105.7907
2.859433672	105.7888
2.857857321	105.8562
2.856282708	105.8523
2.854709829	105.8513
2.853138681	105.8279
2.851569261	105.7859
2.850001568	105.7458
2.848436408	105.7663
2.846872156	105.7322
2.845309621	105.6833
2.8437488	105.6618
2.842189691	105.6335
2.840632291	105.5788
2.839076596	105.5447
2.837522604	105.4812
2.835970313	105.4646
2.834419719	105.4607
2.83287082	105.4509
2.831323613	105.3806
2.829778094	105.3103
2.828234263	105.1921
2.826692114	105.2068
2.825151647	105.1921
2.823612858	105.114
2.822075744	105.0837
2.820540303	105.0114
2.819006531	104.9148
2.817474427	104.9499
2.815943987	104.9109
2.81441521	104.8366
2.812888091	104.8288
2.811363418	104.8142
2.809839609	104.7575
2.80831745	104.6872
2.806796939	104.6775
2.805278075	104.6052
2.803760853	104.5036
2.802245271	104.4499
2.800731327	104.4548
2.799219018	104.4421
2.797708341	104.406
2.796199294	104.4226
2.794691874	104.365
2.793186078	104.3249
2.791681905	104.3171
2.79017935	104.3132
2.788678412	104.2312
2.787179865	104.1179
2.785682151	104.1404
2.784186046	104.1423
2.782691547	104.1062
2.781198652	103.9968
2.779707358	103.946
2.778217662	103.9099
2.776729562	103.8962
2.775243056	103.8591
2.77375814	103.8327
2.772274812	103.7439
2.77079307	103.6169
2.769312911	103.5906
2.767834333	103.5583
2.766357333	103.532
2.764881908	103.5124
2.763408056	103.407
2.761935774	103.3435
2.760465061	103.407
2.758995913	103.4265
2.757528328	103.3952
2.756062304	103.1853
2.754597837	103.0945
2.753134926	103.24
2.751674325	103.2585
2.750214517	103.2351
2.748756257	103.2234
2.747299542	103.2156
2.74584437	103.1618
2.74439074	103.0857
2.742938647	103.0173
2.741488091	102.8806
2.740039067	102.782
2.738591575	102.8005
2.737145611	102.8865
2.735701174	102.9148
2.73425826	102.8318
2.732816867	102.9197
2.731376994	102.8757
2.729938636	102.7742
2.728501793	102.7654
2.727066462	102.7497
2.72563264	102.6072
2.724200325	102.4802
2.722769514	102.5271
2.721340206	102.532
2.719912397	102.4099
2.718486086	102.5554
2.717062008	102.6531
2.715638684	102.6609
2.714216851	102.6638
2.712796505	102.6169
2.711377646	102.4031
2.709960269	102.2302
2.708544374	102.2976
2.707129958	102.2868
2.705717018	102.2595
2.704305552	102.1872
2.702895558	102.1531
2.701487034	102.0398
2.700079976	102.0232
2.698674384	102.0368
2.697270255	101.9529
2.695867585	101.8357
2.694466374	101.7507
2.693066619	101.7419
2.691668318	101.8249
2.690271467	101.8259
2.688876066	101.7868
2.687482111	101.739
2.686089602	101.7165
2.684698534	101.7068
2.683309626	101.654
2.681921436	101.6931
2.680534681	101.6951
2.679149359	101.5818
2.677765469	101.5427
2.676383008	101.4968
2.675001973	101.571
2.673622363	101.6247
2.672244175	101.571
2.670867407	101.2927
2.669492057	101.2087
2.668118123	101.3044
2.666745602	101.2234
2.665374493	101.1755
2.664004793	101.2546
2.6626365	101.4187
2.66127032	101.4031
2.659904834	101.3591
2.658540748	101.3992
2.657178061	101.3786
2.65581677	101.363
2.654456873	101.3435
2.653098368	101.3005
2.651741253	101.2263
2.650385525	101.2927
2.649031183	101.2702
2.647678224	101.2615
2.646326647	101.2273
2.644976449	101.2302
2.643627628	101.2624
2.642280182	101.2595
2.640934109	101.2517
2.639589407	101.2439
2.638246073	101.2859
2.636904106	101.2224
2.635563503	101.2117
2.634224263	101.1374
2.632886383	101.0749
2.631549862	100.989
2.630214697	100.8054
2.628881577	100.8562
2.627549117	100.9411
2.626218007	100.8669
2.624888245	100.9734
2.62355983	101.032
2.622232758	100.9968
2.620907028	100.865
2.619582638	100.782
2.618259585	100.9255
2.616937869	100.8337
2.615617486	100.8171
2.614298435	100.8796
2.612980713	100.8767
2.61166432	100.8406
2.610349252	100.8249
2.609035507	100.8513
2.607723085	100.7507
2.606411982	100.6833
2.605102197	100.6326
2.603793727	100.6882
2.602486572	100.7429
2.601180728	100.8005
2.599876194	100.8249
2.598572968	100.8826
2.597271722	100.7546
2.595971105	100.5486
2.59467179	100.2859
2.593373774	100.3708
2.592077057	100.6228
2.590781636	100.6726
2.589487509	100.6599
2.588194675	100.6218
2.58690313	100.572
2.585612874	100.6208
2.584323905	100.5427
2.58303622	100.489
2.581749817	100.532
2.580464695	100.5388
2.579180852	100.5622
2.577898286	100.4802
2.576616995	100.407
2.575336976	100.3992
2.574058229	100.3953
2.572780751	100.3328
2.571504541	100.4509
2.570229596	100.4724
2.568955915	100.4802
2.567683495	100.5124
2.566412994	100.4958
2.565143091	100.3835
2.563874445	100.282
2.562607053	100.3005
2.561340913	100.2898
2.560076024	100.3474
2.558812384	100.3943
2.55754999	100.4109
2.556288841	100.4021
2.555028936	100.3835
2.553770272	100.3552
2.552512847	100.3865
2.55125666	100.3562
2.550001709	100.3122
2.548747991	100.2693
2.547495506	100.2458
2.546244252	100.2576
2.544994225	100.2312
2.543745426	100.2703
2.542497852	100.2624
2.5412515	100.3279
2.54000637	100.3054
2.53876246	100.2185
2.537519767	100.2263
2.536278934	100.1638
2.535038671	100.1951
2.53379962	100.2029
2.53256178	100.154
2.531325149	100.1404
2.530089725	100.1794
2.528855506	100.1794
2.52762249	100.1755
2.526390677	100.1306
2.525160064	100.1775
2.523930648	100.156
2.52270243	100.1189
2.521475406	100.154
2.520249575	100.1443
2.519024936	100.1599
2.517801486	100.113
2.516579857	100.072
2.515358781	99.9607
2.514138889	99.9177
2.512920179	99.9079
2.511702651	99.8826
2.510486301	99.9275
2.50927113	99.9333
2.508057134	100.0017
2.506844312	100.0056
2.505632662	100.0154
2.504422183	99.9568
2.503212874	99.9763
2.502004731	99.9392
2.500797754	99.9333
2.499591942	99.9099
2.498387291	99.8923
2.497183801	99.8923
2.49598147	99.8904
2.494780296	99.8494
2.493580278	99.8318
2.492381413	99.8318
2.491183701	99.822
2.489987139	99.8415
2.488791726	99.8747
2.48759808	99.8474
2.486404959	99.863
2.485212983	99.7732
2.484022149	99.8064
2.482832455	99.8122
2.4816439	99.7986
2.480456483	99.7224
2.479270202	99.6892
2.478085055	99.6951
2.47690104	99.6658
2.475718156	99.6794
2.474536402	99.7302
2.473355775	99.7029
2.472176274	99.6404
2.470997898	99.7068
2.469820644	99.7068
2.468644512	99.7224
2.467469499	99.7087
2.466295604	99.6287
2.465122826	99.6033
2.463951163	99.5974
2.462780612	99.5935
2.461611174	99.5583
2.460442845	99.6208
2.45927623	99.6736
2.458110116	99.7322
2.456945108	99.6794
2.455781204	99.6072
2.454618401	99.6482
2.4534567	99.6619
2.452296097	99.7048
2.451136592	99.7576
2.449978183	99.5798
2.448820868	99.6189
2.447664646	99.5037
2.446509516	99.5388
2.445355475	99.5622
2.444202523	99.5154
2.443050657	99.4724
2.441899876	99.5037
2.440750179	99.5037
2.439601564	99.5427
2.43845403	99.5388
2.437307575	99.6111
2.436162197	99.5876
2.435017895	99.5505
2.433874668	99.5642
2.432732513	99.5115
2.431592022	99.5095
2.430452008	99.4783
2.429313063	99.4802
2.428175185	99.4314
2.427038372	99.4333
2.425902624	99.4294
2.424767938	99.4919
2.423634312	99.4568
2.422501747	99.4333
2.421370239	99.4626
2.420239788	99.4802
2.419110392	99.4079
2.417982049	99.3298
2.416854758	99.4158
2.415728518	99.3806
2.414603328	99.3396
2.413479185	99.2771
2.412356088	99.2693
2.411234036	99.2497
2.410113027	99.199
2.40899306	99.2185
2.407874134	99.1853
2.406756246	99.199
2.405639396	99.2048
2.40452416	99.2419
2.40340938	99.2829
2.402295634	99.2908
2.401182919	99.3552
2.400071234	99.3122
2.398960578	99.3533
2.39785095	99.3044
2.396742348	99.3201
2.39563477	99.324
2.394528216	99.2732
2.393422683	99.2908
2.392318171	99.2497
2.391214677	99.2126
2.390112201	99.1579
2.389010742	99.1521
2.387910297	99.2107
2.386811435	99.1658
2.385713014	99.2224
2.384615605	99.2576
2.383519204	99.281
2.382423811	99.3318
2.381329425	99.3513
2.380236043	99.2849
2.379143665	99.2204
2.37805229	99.2654
2.376961915	99.2107
2.375872539	99.2771
2.374784162	99.2068
2.373696781	99.322
2.372610396	99.2419
2.371525004	99.2263
2.370440606	99.2595
2.369357198	99.3533
2.368274781	99.2986
2.367193351	99.2263
2.366112909	99.1755
2.365033453	99.2673
2.363954982	99.281
2.362877493	99.2263
2.361800987	99.1579
2.360726018	99.0954
2.35965147	99.1638
2.3585779	99.0935
2.357505307	99.0622
2.356433688	99.0779
2.355363044	99.1091
2.354293372	99.1111
2.353224671	99.1404
2.35215694	99.2419
2.351090177	99.2146
2.350024382	99.2204
2.348959552	99.1287
2.347895687	99.1482
2.346832785	99.199
2.345770845	99.1638
2.344709866	99.1033
2.343649846	99.0017
2.342590784	99.031
2.341532678	99.0076
2.340475528	98.9919
2.339419333	98.9919
2.33836409	98.947
2.337309798	98.9392
2.336256457	98.9294
2.335204611	98.9802
2.334153166	99.0642
2.333102667	99.0251
2.332053114	99.0505
2.331004504	99.072
2.329956838	99.1365
2.328910112	99.0954
2.327864326	98.9997
2.32681948	98.988
2.325775571	98.9939
2.324732598	99.0154
2.32369056	99.0037
2.322649456	99.1091
2.321609284	98.9861
2.320570043	98.9451
2.319531733	98.9294
2.318494351	98.9802
2.317457897	98.9451
2.316422369	98.9392
2.315387766	98.8747
2.314354087	99.0388
2.31332133	98.9568
2.312289495	98.9783
2.31125858	98.9841
2.310229117	98.9997
2.309200038	98.9958
2.308171875	99.0173
2.307144627	99.1169
2.306118293	99.1091
2.305092872	99.0115
2.304068363	99.0388
2.303044763	99.0857
2.302022073	99.0876
2.301000291	99.0173
2.299979415	99.0466
2.298959445	98.9724
2.297940379	99.0329
2.296922216	99.0486
2.295904955	99.0544
2.294888595	99.0642
2.29387366	98.9333
2.292859097	99.1404
2.291845431	99.0876
2.29083266	99.1599
2.289820785	99.0564
2.288809803	99.0564
2.287799713	99.1326
2.286790515	99.1247
2.285782206	98.9958
2.284774786	99.0095
2.283768254	99.0232
2.282762608	98.9607
2.281757848	98.8845
2.280753972	98.8533
2.279750978	98.9216
2.278748867	98.906
2.277747636	98.9314
2.276747284	99.0095
2.275747811	99.0408
2.274749215	99.1189
2.273751494	99.0583
2.272754649	98.9958
2.271758677	99.0193
2.270763578	99.0701
2.269769866	98.9841
2.268776508	98.9646
2.267784019	99.0154
2.266792398	99.0408
2.265801644	99.0486
2.264811756	99.1443
2.263822732	99.0505
2.262834571	99.1169
2.261847273	99.0642
2.260860836	99.031
2.259875259	98.9997
2.258890541	99.0329
2.257906681	99.0564
2.256923678	99.1326
2.25594153	99.0271
2.254960236	99.0935
2.253979796	99.1404
2.253000208	99.1326
2.252021471	99.0974
2.251043584	99.1111
2.250066546	99.0798
2.249090355	99.1247
2.248115012	99.1443
2.247140514	99.0486
2.246167365	99.1033
2.245194554	99.1658
2.244222586	99.1872
2.243251458	99.1677
2.242281171	99.1326
2.241311723	99.1951
2.240343113	99.1814
2.23937534	99.1677
2.238408402	99.0779
2.237442299	99.0798
2.23647703	99.1638
2.235512593	99.0564
2.234548988	99.1443
2.233586213	99.1404
2.232624267	99.238
2.231663149	99.1794
2.230702859	99.2419
2.229743394	99.2439
2.228784755	99.2419
2.22782694	99.1638
2.226869947	99.2654
2.225913777	99.3279
2.224958427	99.3923
2.224003896	99.3747
2.223050679	99.3357
2.222097785	99.2283
2.221145707	99.2341
2.220194445	99.2751
2.219243997	99.3064
2.218294362	99.2751
2.21734554	99.3064
2.21639753	99.2829
2.215450329	99.3044
2.214503938	99.4216
2.213558355	99.3689
2.212613579	99.2966
2.211669609	99.3279
2.210726445	99.2654
2.209784084	99.3201
2.208842527	99.1404
2.207901771	99.2107
2.206961817	99.2595
2.206022662	99.2107
2.205084307	99.2419
2.204146749	99.3454
2.203209989	99.4001
2.202274024	99.3044
2.201338854	99.3122
2.200404963	99.3591
2.199471379	99.322
2.198538587	99.3357
2.197606587	99.2927
2.196675376	99.3435
2.195744954	99.3279
2.194815319	99.3689
2.193886472	99.2439
2.192958411	99.3142
2.192031134	99.4372
2.191104641	99.4763
2.190178931	99.3474
2.189254003	99.3435
2.188329856	99.4997
2.187406488	99.4919
2.1864839	99.3142
2.185562567	99.3064
2.184641533	99.3904
2.183721275	99.4216
2.182801792	99.4294
2.181883083	99.406
2.180965147	99.3669
2.180047983	99.4685
2.17913159	99.4138
2.178215967	99.5329
2.177301113	99.4763
2.176387028	99.406
2.175473709	99.4392
2.174561157	99.5251
2.17364937	99.5076
2.172738348	99.572
2.171828089	99.6365
2.170918592	99.5329
2.170009856	99.4919
2.169101881	99.4685
2.168194666	99.5232
2.167288209	99.5388
2.166382509	99.6091
2.165477567	99.4529
2.16457338	99.4158
2.163670416	99.4138
2.162767737	99.4548
2.161865811	99.4314
2.160964637	99.3611
2.160064214	99.3865
2.159164542	99.4646
2.158265618	99.5466
2.157367442	99.5622
2.156470014	99.4372
2.155573332	99.488
2.154677395	99.4802
2.153782203	99.5544
2.152887754	99.4216
2.151994048	99.4333
2.151101084	99.4255
2.150208861	99.4216
2.149317377	99.5076
2.148426632	99.4294
2.147536625	99.4919
2.146647355	99.6404
2.145758822	99.6326
2.144871024	99.5544
2.14398396	99.7029
2.143097629	99.7263
2.14221249	99.6326
2.141327623	99.5857
2.140443487	99.5818
2.139560081	99.5115
2.138677403	99.5544
2.137795454	99.4372
2.136914232	99.6091
2.136033736	99.5466
2.135153965	99.6716
2.134274919	99.7302
2.133396596	99.6013
2.132518995	99.7146
2.131642117	99.824
2.130765959	99.9138
2.129890521	99.7966
2.129015803	99.6755
2.128141802	99.6247
2.127268519	99.6755
2.126395952	99.656
2.125524101	99.4997
2.124652964	99.5427
2.123782542	99.4841
2.122912832	99.6208
2.122043834	99.8162
2.121175997	99.7537
2.12030842	99.5701
2.119441553	99.5974
2.118575394	99.6755
2.117709942	99.7419
2.116845198	99.5427
2.115981159	99.5935
2.115117826	99.7185
2.114255197	99.7576
2.113393271	99.6872
2.112532047	99.6169
2.111671525	99.8435
2.110811704	99.7888
2.109952583	99.7771
2.109094161	99.738
2.108236437	99.6247
2.107379855	99.6872
2.106523524	99.7419
2.105667889	99.7537
2.104812949	99.6013
2.103958703	99.6755
2.103105151	99.5935
2.10225229	99.6872
2.101400121	99.7107
2.100548642	99.7732
2.099697853	99.7654
2.098847754	99.6912
2.097998342	99.7107
2.097149617	99.7654
2.096301579	99.656
2.095454226	99.7576
2.094607559	99.7966
2.093761575	99.6677
2.092916274	99.7693
2.092071655	99.7888
2.091227718	99.906
2.090384461	99.9216
2.089541885	99.8982
2.088699987	99.9138
2.087858767	99.8318
2.08701866	99.7888
2.086178794	99.738
2.085339604	99.8435
2.084501088	99.7537
2.083663247	99.8201
2.082826078	99.8904
2.081989583	99.8005
2.081153758	99.7849
2.080318605	99.7419
2.079484122	99.863
