Name:  Calcite CaCO3
Type:  Mineral
Class:  Carbonates
Subclass:   
Particle Size:  Fine (less than 2 Micrometers)
Sample No.:  calcite.1
Owner:  JHU
Wavelength Range:  IR
Origin: Hunt and Salisbury Collection #194B (purchased from Ward's 
Natural Science Establishment); Sample from Mexico.
Description: The sample consisted of transparent euhedral crystals.  
The largest was about 2 cm x 2 cm.  This was obviously pure optical 
quality calcite.



Measurement:  Transmission 
First Column:  X
Second Column:  Y  
X Units:  Wavelength (micrometers)
Y Units:  Transmittance (percent)
First X Value:  25.0442
Last X Value:  2.079
Number of X Values:  2287
Additional Information:  calcit1a.txt

25.04420302	87.1287
24.9237955	88.0154
24.80454022	87.9529
24.68642074	88.3513
24.5694209	89.117
24.45358465	89.7146
24.3387763	90.2185
24.22504094	91.1951
24.11236361	90.9451
24.00072962	90.6326
23.89012454	90.8298
23.78053421	91.3923
23.67194472	91.0877
23.56434244	91.533
23.45771395	91.9939
23.35204611	92.1326
23.24732598	92.3474
23.14354087	92.7341
23.04067832	93.1189
22.93872607	93.074
22.83767211	93.074
22.7375046	93.0818
22.63821194	93.4822
22.53978272	93.7615
22.44220571	94.0154
22.3454699	94.0427
22.24956446	94.4841
22.15447875	94.7341
22.06020229	94.7263
21.96677306	94.6443
21.87408402	94.8611
21.7821739	95.0037
21.69103293	95.5076
21.60065148	95.5935
21.5110201	95.3845
21.42212949	95.7048
21.33397051	96.0623
21.24653416	96.1931
21.15981159	95.9958
21.0737941	96.2361
20.98847313	96.1697
20.90384024	96.2078
20.81988716	96.3914
20.73660571	96.4646
20.65398787	96.5349
20.57202575	96.7341
20.49071156	97.0115
20.41003766	97.1921
20.3299965	97.3445
20.25058069	97.2146
20.1717829	97.2732
20.09359597	97.282
20.01601281	97.4617
19.93906621	97.3992
19.8626695	97.4539
19.78685599	97.5564
19.71161901	97.822
19.63695203	97.9812
19.56284859	97.9812
19.48930232	98.1179
19.41630698	97.9958
19.34385639	98.1999
19.27194448	98.2244
19.20056526	98.2898
19.12971284	98.1697
19.05938141	98.3054
18.98956523	98.324
18.92025868	98.4646
18.85145618	98.4705
18.78315226	98.4529
18.71534153	98.5037
18.64801865	98.6267
18.58117838	98.6384
18.51481556	98.4968
18.44892507	98.7009
18.38350191	98.8767
18.31854111	99.1247
18.25407111	98.9929
18.19002023	99.1374
18.12641726	99.113
18.06325753	99.1345
18.00053642	99.2146
17.93824937	99.1453
17.8763919	99.1765
17.81495958	99.1335
17.75394803	99.2976
17.69335296	99.2634
17.63317011	99.3454
17.57339529	99.3757
17.51402436	99.4568
17.45505324	99.4607
17.39647791	99.4802
17.3382944	99.3943
17.28049878	99.3621
17.2230872	99.4392
17.16605584	99.3747
17.10940093	99.4499
17.05311876	99.491
16.99720566	99.4988
16.94165801	99.4626
16.88647225	99.5398
16.83167317	99.5593
16.77720046	99.5779
16.72307919	99.5857
16.66930597	99.656
16.61587747	99.5857
16.56279037	99.4929
16.51004141	99.6033
16.45762737	99.6199
16.40554507	99.6257
16.35379138	99.5554
16.30236319	99.6941
16.25125744	99.7244
16.20047111	99.6467
16.15000121	99.572
16.0998448	99.6995
16.04999896	99.801
16.00048641	99.7986
15.95125297	99.8459
15.90232158	99.9197
15.85368947	99.926
15.80535391	99.9104
15.75731218	99.9665
15.70956162	99.9202
15.6620996	99.9509
15.61492349	99.9783
15.56803074	99.9455
15.52141878	99.9363
15.47508511	99.9685
15.42902725	99.9885
15.38324273	99.9607
15.33772913	99.9509
15.29248405	99.9138
15.24750513	100.0627
15.20279002	100.0881
15.1583364	100.1101
15.114142	100.0017
15.07020455	100.0876
15.02652181	100.0505
14.98309158	100.0535
14.93991168	100.1018
14.89700213	100.1423
14.85431629	100.1384
14.81187438	100.0295
14.76967431	99.9412
14.72771402	99.885
14.68599147	99.8874
14.64450465	99.7204
14.60325156	99.7756
14.56223023	99.7092
14.52143873	99.6453
14.48087511	99.488
14.44053748	99.3425
14.40042395	99.1819
14.36053266	98.8962
14.32086177	98.6135
14.28140946	98.1604
14.24217393	97.7092
14.20315338	96.928
14.16434607	95.5139
14.12575025	92.0979
14.0873642	84.9925
14.0491862	76.5154
14.01121458	77.4715
13.97344765	87.1795
13.93590321	94.7869
13.89854065	98.1189
13.8613779	99.1741
13.82441336	99.6799
13.78764544	99.8113
13.75107258	100.0159
13.71469324	100.0378
13.67850587	100.1824
13.64250897	100.154
13.60670103	100.1609
13.57108057	100.2776
13.53564612	100.3435
13.50039624	100.2624
13.46532947	100.3674
13.4304444	100.5701
13.39573962	100.4182
13.36121373	100.3591
13.32686536	100.3596
13.29269314	100.2444
13.25869572	100.1135
13.22487175	100.198
13.19121992	100.3049
13.15773892	100.0329
13.12442745	100.0154
13.09130135	99.9822
13.05832501	100.1169
13.02551438	100.072
12.99286821	99.9006
12.96038529	99.8142
12.92806437	99.9294
12.89590426	99.8811
12.86390376	99.5432
12.83206168	99.8318
12.80037684	99.8738
12.7688481	99.8811
12.73747429	100.0515
12.70625427	100.1506
12.67518693	99.9436
12.64427113	99.9363
12.61350579	100.0427
12.58290562	100.1579
12.55243781	100.1677
12.52211719	100.137
12.4919427	100.2385
12.46191328	100.071
12.43202789	99.9519
12.40228549	99.9202
12.37268507	99.991
12.34322561	99.8298
12.31390609	99.5935
12.28472554	99.5701
12.25568296	99.6604
12.22677738	99.3987
12.19800782	99.2131
12.16937334	99.2248
12.14087298	99.0251
12.1125058	98.864
12.08427087	98.8264
12.05616727	98.8591
12.02819409	98.5788
12.00035041	98.4553
11.97263534	98.3816
11.945048	98.1121
11.9175875	97.8074
11.8902671	97.6316
11.86305761	97.3474
11.83597236	96.426
11.80901051	94.6375
11.78217122	94.1179
11.75545365	95.3845
11.72885698	95.5491
11.70238038	94.8709
11.67602305	93.9197
11.64978419	92.7918
11.62366299	91.4373
11.59765866	89.4763
11.57177043	86.8284
11.54599752	82.99
11.52033916	76.9422
11.49479458	67.244
11.46936304	55.2591
11.44404378	45.4301
11.41883606	41.6825
11.39373914	45.1395
11.3687523	53.18
11.34387482	61.4442
11.31910597	68.9622
11.29444505	78.4085
11.26990406	87.3787
11.24545684	92.2034
11.22111545	93.95
11.19687921	94.7234
11.17274743	95.2502
11.14871946	95.6414
11.12479461	96.0051
11.10097222	96.3572
11.07725165	96.6545
11.05363222	96.7961
11.03011331	96.9724
11.00669427	97.051
10.98337447	97.0632
10.96015327	97.0608
10.93703005	97.0193
10.9140042	97.2087
10.89107509	97.2839
10.86824213	97.3674
10.8455047	97.3777
10.82286221	97.387
10.80031407	97.324
10.77785969	97.3523
10.75549848	97.1135
10.73322986	97.0608
10.71106474	97.1453
10.68897956	97.2234
10.66698525	97.3791
10.64508128	97.5496
10.62326708	97.1833
10.6015421	96.8899
10.5799058	97.0002
10.55835763	97.0022
10.53689705	96.9675
10.51552354	97.0205
10.49423657	97.0271
10.4730356	96.9687
10.45192012	96.9502
10.43088962	96.9043
10.40994358	96.8406
10.38908149	96.8269
10.36830285	96.7891
10.34760717	96.6794
10.32699394	96.5964
10.30646267	96.5322
10.28601287	96.4805
10.26564407	96.4343
10.24535578	96.3906
10.22514752	96.2998
10.20502924	96.2402
10.1849796	96.196
10.16500858	96.2029
10.14511574	96.157
10.12530059	96.1189
10.10556271	96.0029
10.08590162	95.8816
10.0663169	95.7859
10.04680808	95.7703
10.02737473	95.6863
10.00801642	95.5984
9.98873271	95.5674
9.969523168	95.4993
9.950387369	95.4434
9.931324888	95.4031
9.912335307	95.3662
9.893427994	95.2959
9.874582922	95.293
9.855809507	95.3064
9.83710734	95.293
9.818476015	95.2607
9.799915133	95.2585
9.781424293	95.2224
9.7630031	95.0789
9.744651161	94.9539
9.726368087	94.8223
9.70815349	94.7673
9.690006986	94.7529
9.671928196	94.748
9.653916739	94.709
9.635972241	94.6931
9.618094328	94.6943
9.600282632	94.6277
9.582536785	94.5251
9.564856422	94.4695
9.547241181	94.407
9.529690704	94.2966
9.512204634	94.2507
9.494782617	94.1863
9.477424301	94.1045
9.460138288	94.0352
9.4429063	94.0242
9.425736975	93.958
9.408629972	93.7996
9.391584952	93.7351
9.374601579	93.6545
9.35767952	93.5842
9.340818443	93.5183
9.324018018	93.4885
9.307277919	93.3499
9.290597822	93.179
9.273977405	93.1101
9.257416348	93.0212
9.240914333	92.8191
9.224471046	92.6462
9.208086173	92.5725
9.191759404	92.4739
9.17549043	92.5017
9.159278945	92.5276
9.143124645	92.5457
9.127027227	92.5916
9.110986392	92.6179
9.095001842	92.5877
9.079073281	92.4924
9.06320863	92.4602
9.04739114	92.407
9.031628764	92.3743
9.015921215	92.3479
9.000268208	92.406
8.984669459	92.3386
8.969124685	92.2976
8.953633608	92.217
8.93819595	92.0837
8.922811435	91.971
8.907479789	91.866
8.89220074	91.7747
8.876974017	91.5955
8.861799353	91.4099
8.846676481	91.2744
8.831605135	91.1758
8.816585054	91.0579
8.801615977	90.9151
8.786697643	90.7703
8.771829795	90.6453
8.757012178	90.5466
8.742244536	90.4317
8.727526619	90.332
8.712858175	90.1856
8.69824652	90.0977
8.683676252	89.9746
8.669154714	89.8809
8.654681663	89.7478
8.640256858	89.5938
8.625880055	89.447
8.611551018	89.3565
8.597269507	89.249
8.583035287	89.0584
8.568848124	88.9424
8.554707784	88.833
8.540614036	88.7171
8.52656665	88.542
8.512565398	88.3992
8.498610052	88.2576
8.484700388	88.1253
8.470836182	88.0381
8.45701721	87.9622
8.443243252	87.8594
8.429514089	87.7715
8.415829502	87.6814
8.402189274	87.5662
8.388593191	87.4846
8.375041038	87.3523
8.361539594	87.2217
8.348074642	87.0996
8.334652987	86.9544
8.32127442	86.8108
8.307938734	86.6634
8.294645723	86.5364
8.281395183	86.3897
8.268186911	86.2334
8.255020704	86.0711
8.241896361	85.907
8.228813685	85.7439
8.215772476	85.5352
8.202772537	85.3494
8.189813674	85.1436
8.176895691	84.9209
8.164018395	84.7429
8.151188239	84.5716
8.138391724	84.322
8.125635323	84.0681
8.11291885	83.8372
8.100242116	83.5838
8.087604937	83.3513
8.075007126	83.1055
8.062448501	82.8631
8.049928879	82.6238
8.037448078	82.3897
8.025005918	82.1228
8.012602221	81.8575
8.000236807	81.6272
7.9879095	81.4082
7.975620124	81.1595
7.963368505	80.9336
7.951154468	80.7376
7.938977841	80.4668
7.926838452	80.1465
7.914736131	79.8186
7.902670708	79.472
7.890642014	79.1062
7.878649883	78.7754
7.866694148	78.4261
7.854780812	78.0467
7.842897355	77.6834
7.831049799	77.2991
7.819237984	76.8953
7.807461747	76.5203
7.795720929	76.1746
7.784015369	75.751
7.772344909	75.3255
7.760709391	74.9217
7.749108659	74.5076
7.737542556	74.0596
7.726010929	73.586
7.714513623	73.1067
7.703050485	72.5965
7.691621363	72.055
7.680226106	71.5359
7.668864563	70.9871
7.657536586	70.4512
7.646242025	69.9258
7.634980733	69.4153
7.623752563	68.8692
7.61255737	68.3184
7.601395008	67.7501
7.590265333	67.1973
7.579173946	66.638
7.568109199	66.056
7.557076711	65.4456
7.546076342	64.7921
7.535107952	64.1634
7.524171401	63.5042
7.51326655	62.7791
7.502393263	62.0343
7.491551403	61.2796
7.480740833	60.4842
7.469961418	59.6571
7.459213023	58.8097
7.448495516	57.9581
7.437808762	57.0604
7.42715263	56.1415
7.416526989	55.2084
7.405931707	54.2208
7.395366655	53.2081
7.384831703	52.1749
7.374326724	51.1224
7.363851589	49.9916
7.353406171	48.8368
7.342990345	47.6317
7.332603984	46.35
7.322252325	45.0636
7.311924506	43.7169
7.30162578	42.3534
7.291356025	40.9931
7.281115117	39.6395
7.270902937	38.2433
7.260719363	36.8007
7.250564275	35.3471
7.240437554	33.7892
7.230339081	32.1606
7.220268738	30.5238
7.210226408	28.8388
7.200211974	27.1435
7.19022532	25.4492
7.18026633	23.7856
7.17033489	22.1899
7.160436013	20.7944
7.150559317	19.725
7.140709829	18.9113
7.130887439	18.0297
7.121092034	16.8674
7.111323503	15.5029
7.101581735	14.1787
7.091866622	12.9965
7.082178053	11.9873
7.07251592	11.1806
7.062880115	10.5744
7.053270531	10.1469
7.04368706	9.9016
7.034129597	9.8633
7.024598035	9.9526
7.01509227	9.9826
7.005612196	10.0149
6.99615771	10.1655
6.986728709	10.4494
6.977325089	10.7734
6.967946748	11.0962
6.958593585	11.3994
6.949265497	11.6953
6.939962385	11.9961
6.930688952	12.3383
6.921435478	12.7021
6.912206681	13.1025
6.903002461	13.5317
6.893822721	13.9839
6.884667364	14.4409
6.875536292	14.9126
6.866429409	15.4084
6.857346618	15.9467
6.848287825	16.4973
6.839252935	17.0229
6.830241852	17.5869
6.821254483	18.2026
6.812290735	18.8332
6.803350514	19.4697
6.794433728	20.1425
6.785540285	20.8684
6.776670093	21.6398
6.767823062	22.4829
6.7589991	23.3723
6.750198118	24.3232
6.741420026	25.3498
6.732664735	26.4228
6.723932156	27.5256
6.715226709	28.631
6.706539278	29.7687
6.697874296	30.9628
6.689231675	32.1855
6.680611329	33.4374
6.672013173	34.7001
6.663437121	36.006
6.654883087	37.2953
6.646350987	38.536
6.637840737	39.7677
6.629352253	41.0343
6.620885451	42.2719
6.612440248	43.4735
6.604016563	44.6583
6.595614312	45.7992
6.587233415	46.9056
6.578873789	48.0197
6.570535354	49.1234
6.56221803	50.1984
6.553921736	51.2628
6.545646392	52.339
6.537391921	53.4044
6.529158241	54.4745
6.520945276	55.5643
6.512757189	56.6546
6.504585407	57.722
6.496434107	58.8031
6.488303211	59.8646
6.480192643	60.9483
6.472102327	62.0011
6.464032186	63.0487
6.455982145	64.0545
6.44795213	65.0616
6.439942066	66.0199
6.431951879	66.8953
6.423981494	67.7169
6.416030838	68.4884
6.408099838	69.2022
6.400188422	69.8729
6.392296516	70.574
6.384424048	71.2491
6.376570948	71.8416
6.368737143	72.4434
6.360922563	73.0447
6.353127136	73.5733
6.345350793	73.9639
6.337593464	74.376
6.329855078	74.7845
6.322139564	75.2383
6.314438848	75.7647
6.30675687	76.2146
6.29909356	76.5228
6.291448851	76.824
6.283822676	77.2991
6.276214965	77.8663
6.268625654	78.3865
6.261054675	78.7962
6.253501961	79.1846
6.245967447	79.5935
6.238451067	80.0186
6.230952756	80.4021
6.223472449	80.7166
6.21601008	81.0418
6.208565585	81.4041
6.201142747	81.7454
6.1937338	82.0137
6.186342535	82.2791
6.178968891	82.5486
6.171612803	82.7976
6.164274209	83.0069
6.156953047	83.2107
6.149649255	83.3875
6.14236277	83.5918
6.135093533	83.8577
6.12784148	84.1446
6.120606552	84.3242
6.113388688	84.4502
6.106187828	84.6375
6.099003911	84.8145
6.091836878	85.0059
6.084686669	85.2276
6.077553226	85.448
6.070436489	85.6946
6.063336399	86.0117
6.056252899	86.2859
6.049185931	86.5176
6.042135436	86.8631
6.035101357	87.1985
6.02808727	87.447
6.021085843	87.8067
6.01410066	88.2488
6.007131667	88.626
6.000178805	88.9446
5.99324202	89.198
5.986321256	89.3845
5.979416457	89.4841
5.972527568	89.5564
5.965654534	89.6106
5.9587973	89.6799
5.951955813	89.7439
5.945130017	89.793
5.938319859	89.7803
5.931525286	89.8572
5.924746243	90.0186
5.917982678	90.1394
5.911234538	90.2068
5.904501769	90.3025
5.89778432	90.4024
5.891082139	90.5339
5.884395172	90.6555
5.87772337	90.8264
5.871066679	90.9785
5.864428488	91.0535
5.85780186	91.1663
5.851190191	91.2996
5.84459343	91.4004
5.838011527	91.5261
5.831444431	91.6387
5.824892094	91.742
5.818354465	91.8552
5.811831494	91.9954
5.805323133	92.095
5.798829332	92.1572
5.792350043	92.2539
5.785885217	92.3762
5.779434806	92.5017
5.772998761	92.5754
5.766577035	92.6328
5.760169579	92.7669
5.753776347	92.9031
5.747397291	92.9949
5.741032364	93.0713
5.734681519	93.1992
5.728344709	93.3528
5.722021888	93.4932
5.715713009	93.5637
5.709421287	93.6328
5.703140149	93.7551
5.696872816	93.8679
5.690619242	93.9375
5.684379382	94.0032
5.678153192	94.1038
5.671940626	94.2432
5.66574164	94.4033
5.659556189	94.509
5.653384229	94.5759
5.647225716	94.6689
5.641080605	94.7625
5.634948854	94.8652
5.628830419	94.9451
5.622725256	94.9959
5.616633323	95.0166
5.610557723	95.0078
5.604492113	94.9182
5.598439603	94.6006
5.592400152	93.8213
5.586373717	92.1814
5.580360257	90.0762
5.574359729	88.7207
5.568372092	88.2874
5.562397304	88.0955
5.556435324	88.5027
5.550486112	89.8897
5.544549625	91.5369
5.538625823	92.7835
5.532714665	93.5691
5.526816112	94.1094
5.520930122	94.5107
5.515056656	94.8084
5.509195674	95.0457
5.503347136	95.2634
5.497511002	95.4414
5.491687233	95.5867
5.48587579	95.7571
5.480076633	95.8809
5.474289725	96.0193
5.468518015	96.1428
5.462755479	96.2634
5.457005076	96.3545
5.451266765	96.4958
5.445540511	96.5818
5.439826274	96.6521
5.434124016	96.7559
5.428433701	96.8289
5.422755291	96.8975
5.417088748	96.9744
5.411434035	97.0618
5.405791116	97.1133
5.400159953	97.1592
5.394540509	97.2373
5.388932749	97.3005
5.383336635	97.3232
5.377752132	97.3877
5.372179203	97.4756
5.366617813	97.5398
5.361067925	97.6033
5.355529504	97.6641
5.350002515	97.7327
5.344486921	97.7783
5.338982689	97.8396
5.333492627	97.9228
5.328011006	97.9548
5.32254064	97.9929
5.317081497	98.0456
5.31163354	98.0867
5.306196736	98.1096
5.30077105	98.1934
5.295356449	98.2402
5.289952898	98.2639
5.284560364	98.3357
5.279178813	98.3838
5.273808212	98.4036
5.268448526	98.4397
5.263099724	98.5264
5.257761771	98.5586
5.252434635	98.5859
5.247118283	98.6387
5.241812682	98.6594
5.236517799	98.6816
5.231233603	98.7236
5.225960061	98.8115
5.220697141	98.8508
5.21544481	98.8821
5.210203036	98.9324
5.204974498	98.9958
5.19975374	98.9988
5.194543444	99.0227
5.189343579	99.0705
5.184154115	99.1145
5.178975019	99.1365
5.173806261	99.1672
5.168647809	99.2214
5.163499634	99.2454
5.158361704	99.3147
5.153233989	99.3352
5.148116459	99.3596
5.143009082	99.3845
5.137911829	99.4141
5.13282467	99.4219
5.127747575	99.4541
5.122680514	99.5007
5.117623458	99.5251
5.112576376	99.5691
5.107539239	99.594
5.102512018	99.6135
5.097494683	99.6006
5.092487206	99.6492
5.087489558	99.698
5.082504292	99.7119
5.077526209	99.7109
5.072557868	99.7322
5.06759924	99.7712
5.062650297	99.7891
5.057711011	99.8279
5.052781354	99.8555
5.047861297	99.9111
5.042950812	99.9695
5.038049872	99.9753
5.033158448	99.9744
5.028276513	100.0173
5.023404039	100.0586
5.018541	100.0842
5.013687367	100.1013
5.008843113	100.1081
5.004010715	100.1247
4.999185133	100.1592
4.994368849	100.1719
4.989561837	100.1826
4.984764069	100.1936
4.979975518	100.2246
4.97519616	100.2873
4.970425966	100.3376
4.96566491	100.3347
4.960912967	100.3369
4.95617011	100.3718
4.951436313	100.3935
4.94671155	100.4075
4.941995795	100.4131
4.937289023	100.4307
4.932591209	100.4521
4.927902325	100.4714
4.923222347	100.4753
4.918551251	100.5068
4.913889009	100.5476
4.909235598	100.5681
4.904590991	100.582
4.899955165	100.6113
4.895328095	100.6426
4.890712146	100.6494
4.886102507	100.6387
4.88150155	100.6575
4.876909249	100.6523
4.87232558	100.6836
4.86775052	100.6963
4.863184043	100.6999
4.858626126	100.7109
4.854076745	100.7395
4.849535875	100.7458
4.845003493	100.7637
4.840479575	100.79
4.835964098	100.8379
4.831457037	100.862
4.826958369	100.8762
4.822468072	100.906
4.81798612	100.9119
4.813512492	100.927
4.809047164	100.9775
4.804590113	100.9785
4.800141316	100.9714
4.79570075	100.9792
4.791268392	100.9944
4.78684422	101.0535
4.782430498	101.0691
4.778022625	101.0647
4.773622869	101.0676
4.769231209	101.0974
4.764847623	101.1101
4.760472086	101.0925
4.756104579	101.1055
4.751745078	101.1172
4.747393562	101.1582
4.743050009	101.1672
4.738714396	101.1738
4.734386703	101.1926
4.730066907	101.2031
4.725754987	101.1843
4.721450921	101.1833
4.717154688	101.1609
4.712866266	101.1272
4.708585635	101.1208
4.704312773	101.1189
4.700047658	101.1023
4.695790271	101.1062
4.691540589	101.1135
4.687298593	101.0967
4.68306426	101.0947
4.67883976	101.1243
4.67462069	101.1365
4.670409221	101.094
4.666205334	101.126
4.662009009	101.1501
4.657820224	101.1689
4.65363896	101.2087
4.649465195	101.251
4.645298911	101.2844
4.641140087	101.3164
4.636988702	101.3799
4.632844738	101.3945
4.628708174	101.4118
4.62457899	101.4402
4.620457167	101.4424
4.616342684	101.4509
4.612235523	101.5383
4.608135664	101.6523
4.604043086	101.6003
4.599957772	101.5632
4.595879702	101.5722
4.591808856	101.5635
4.587745215	101.5701
4.58368876	101.5925
4.57964157	101.5976
4.575599426	101.5976
4.571564412	101.623
4.567536508	101.6111
4.563515696	101.6103
4.559501956	101.6328
4.555495271	101.6423
4.551495621	101.6501
4.547502989	101.6648
4.543517355	101.7038
4.539538701	101.6826
4.535567009	101.6843
4.531602261	101.707
4.527644439	101.7021
4.523693523	101.6848
4.519749497	101.6833
4.515814382	101.7175
4.511884077	101.7424
4.507960608	101.7637
4.504043956	101.7722
4.500134104	101.7734
4.496231034	101.7676
4.492334729	101.7754
4.488445171	101.7966
4.484562343	101.8183
4.480686226	101.8515
4.476816804	101.8857
4.47295406	101.8786
4.469097975	101.8701
4.465248534	101.8884
4.461405718	101.8838
4.45756951	101.8808
4.453739894	101.8874
4.449916853	101.8865
4.44610037	101.8904
4.442290427	101.9121
4.438487009	101.9011
4.434690097	101.9092
4.430899676	101.9053
4.42711573	101.906
4.423340197	101.9238
4.419569145	101.9568
4.415804518	102.0129
4.412046298	101.9902
4.408294471	102.0127
4.404549018	102.0205
4.400809925	102.0261
4.397077175	101.9685
4.393350752	101.9524
4.389630639	101.999
4.385916821	102.0264
4.382209282	102.0139
4.378508006	102.0371
4.374812977	102.0827
4.371124179	102.125
4.367441596	102.0749
4.363765214	102.0495
4.360095015	102.0593
4.356430985	102.0534
4.352773108	102.0947
4.349121369	102.1228
4.345475751	102.1096
4.341836241	102.0495
4.338202821	102.0283
4.334577357	102.0798
4.330956072	102.1387
4.327340832	102.154
4.323731623	102.166
4.320128429	102.1601
4.316531235	102.1582
4.312940028	102.1621
4.30935479	102.1701
4.305775509	102.1384
4.302202168	102.1306
4.298634754	102.1504
4.29507325	102.2051
4.291517644	102.2068
4.287967919	102.1843
4.284424062	102.1953
4.280886058	102.2068
4.277353892	102.1784
4.27382755	102.1697
4.270307018	102.199
4.266792281	102.2226
4.263283325	102.2519
4.259780136	102.2478
4.256282699	102.2234
4.252791	102.2195
4.249306832	102.2478
4.245826565	102.2312
4.242351994	102.2197
4.238883105	102.2392
4.235419885	102.2334
4.231962319	102.2383
4.228510393	102.2627
4.225064094	102.251
4.221623408	102.2041
4.218188322	102.207
4.214758821	102.2029
4.211334892	102.2009
4.207916522	102.2068
4.204503696	102.2363
4.201096402	102.2868
4.197694626	102.2849
4.194300114	102.2402
4.190909331	102.2617
4.187524026	102.3066
4.184144186	102.2654
4.180769797	102.2793
4.177400846	102.3288
4.174037321	102.3669
4.170679208	102.3454
4.167326493	102.28
4.163979165	102.2217
4.16063721	102.2431
4.157300615	102.2605
4.153969367	102.2392
4.150643454	102.2285
4.147322862	102.237
4.144007579	102.2812
4.140697592	102.2458
4.137392888	102.2331
4.134093455	102.2532
4.130799281	102.2629
4.127510352	102.2698
4.124226656	102.2668
4.120948181	102.2605
4.117674914	102.258
4.114408535	102.2712
4.111145645	102.2502
4.107887925	102.2341
4.104635365	102.2092
4.101387951	102.178
4.098145671	102.1814
4.094908514	102.197
4.091676466	102.1975
4.088449517	102.175
4.085227653	102.1457
4.082010864	102.1365
4.078799136	102.1433
4.075592459	102.1174
4.072390819	102.0539
4.069194206	102.0202
4.066002607	102.0202
4.062816011	101.9851
4.059634406	101.948
4.056457779	101.8547
4.053286121	101.7878
4.050119418	101.8103
4.046957659	101.7673
4.043800833	101.6775
4.040648928	101.5676
4.037503563	101.4817
4.034361463	101.4001
4.031224251	101.3171
4.028091913	101.1579
4.024964439	100.9958
4.021841819	100.8425
4.018724039	100.6609
4.01561109	100.4509
4.012502959	100.0984
4.009399637	99.6418
4.00630111	99.1111
4.00320737	98.5447
4.000118404	97.9763
3.997034201	97.4138
3.99395475	96.8591
3.990880041	96.2898
3.987810062	95.8455
3.984744803	95.5432
3.981684252	95.3953
3.9786284	95.408
3.975577234	95.5251
3.972530744	95.7097
3.96948892	95.9363
3.966451751	96.1697
3.963420797	96.4665
3.960392903	96.8484
3.957369631	97.2786
3.954350972	97.7585
3.951336915	98.238
3.948327449	98.6799
3.945322564	99.1194
3.942322249	99.5232
3.939326493	99.8108
3.936335288	100.009
3.933348621	100.1106
3.930366483	100.1638
3.927388864	100.1951
3.924415753	100.2937
3.921447139	100.3679
3.918483014	100.4494
3.915523366	100.4773
3.912568186	100.5115
3.909617463	100.5544
3.906671188	100.5613
3.90372935	100.5744
3.900791939	100.6072
3.897858945	100.6955
3.894930359	100.7097
3.892007684	100.7126
3.889087881	100.7204
3.886172454	100.7385
3.883261396	100.7268
3.880354695	100.7634
3.877452343	100.7546
3.874554329	100.7434
3.871660644	100.738
3.868771278	100.7419
3.865886222	100.801
3.863005465	100.8552
3.860128998	100.8826
3.857256812	100.8669
3.854388896	100.8923
3.851525243	100.9099
3.848665841	100.9568
3.845812161	101.0036
3.842961232	101.0349
3.840114528	101.1267
3.837272037	101.2029
3.834433752	101.2947
3.831599662	101.4075
3.828769759	101.4958
3.825944033	101.574
3.823122474	101.7156
3.820305074	101.8259
3.817491824	101.8459
3.814682714	101.8982
3.811877735	101.9656
3.809076878	101.9851
3.806280134	101.9885
3.803487494	102.0749
3.800698949	102.1477
3.797914489	102.1975
3.795134107	102.281
3.792357792	102.3606
3.789585537	102.4294
3.786817332	102.4739
3.784053167	102.5281
3.781293036	102.5539
3.778538356	102.5544
3.77578626	102.5388
3.773038171	102.5491
3.770294079	102.5603
3.767553976	102.5583
3.764817852	102.5412
3.7620857	102.5163
3.759357511	102.5354
3.756633275	102.5779
3.753912985	102.5998
3.751196632	102.6076
3.748484207	102.6228
3.745775701	102.6013
3.743071107	102.5993
3.740370416	102.6101
3.73767362	102.6345
3.734980709	102.592
3.732291676	102.6116
3.729606512	102.6755
3.726925208	102.6492
3.724247758	102.656
3.721574151	102.6794
3.718904381	102.6701
3.716238438	102.6506
3.713577694	102.6584
3.71091938	102.6804
3.708264869	102.6506
3.705614154	102.6184
3.702967225	102.6272
3.700324074	102.6238
3.697684695	102.6052
3.695049078	102.6003
3.692417215	102.571
3.689789099	102.6028
3.687164722	102.6301
3.684544075	102.635
3.68192715	102.6252
3.67931394	102.6428
3.676704437	102.6824
3.674098633	102.678
3.67149652	102.6682
3.66889809	102.6633
3.666303336	102.6467
3.663712249	102.592
3.661124822	102.5896
3.658541047	102.5857
3.655960916	102.6189
3.653384422	102.6247
3.65081289	102.6565
3.648243644	102.7063
3.645678012	102.6994
3.643115986	102.7234
3.640557559	102.6985
3.638002722	102.6467
3.635451469	102.614
3.632903791	102.6101
3.630359682	102.6238
3.627819133	102.6306
3.625282138	102.5954
3.622748688	102.6042
3.620218777	102.6228
3.617692397	102.6111
3.615169541	102.5954
3.6126502	102.571
3.610135673	102.5886
3.607623341	102.5984
3.605114504	102.5964
3.602609154	102.5954
3.600107283	102.5935
3.597608885	102.5964
3.595113953	102.5945
3.592622478	102.6135
3.590134454	102.6277
3.587649874	102.6189
3.585168731	102.5935
3.582691017	102.6101
3.580216725	102.6033
3.577745848	102.5642
3.57527838	102.5652
3.572814313	102.5373
3.57035364	102.508
3.567896354	102.4724
3.565442448	102.5022
3.562991916	102.489
3.560544749	102.4773
3.558100942	102.4392
3.555660487	102.4167
3.553223378	102.3777
3.550790868	102.4084
3.548360427	102.4148
3.545933311	102.3972
3.543509513	102.3874
3.541089027	102.365
3.538671844	102.3015
3.53625796	102.2229
3.533847367	102.1526
3.531440058	102.074
3.529036026	101.9743
3.526635266	101.8694
3.524237769	101.6662
3.52184353	101.4743
3.519452542	101.3108
3.517064798	101.1306
3.514680292	100.9416
3.512299017	100.8303
3.509920967	100.7253
3.507546135	100.6511
3.505174514	100.5393
3.502806098	100.4416
3.500440881	100.3269
3.498078855	100.2781
3.495720015	100.1814
3.493365575	100.0237
3.491013085	99.8596
3.488663762	99.7546
3.486317598	99.6116
3.483974588	99.4919
3.481634725	99.3733
3.479298003	99.3435
3.476964415	99.3718
3.474633956	99.5163
3.472306619	99.7698
3.469982397	100.094
3.467661284	100.4372
3.465343275	100.7112
3.463028363	100.862
3.460716541	100.9636
3.458407804	101.0339
3.456102146	101.092
3.453799559	101.1389
3.451500039	101.1487
3.449203579	101.1433
3.446910172	101.1296
3.444619814	101.1506
3.442332497	101.1247
3.440048216	101.133
3.437768146	101.1589
3.435489916	101.1623
3.433214704	101.1267
3.430942504	101.1394
3.428673309	101.1526
3.426407114	101.1374
3.424143913	101.1272
3.421883699	101.0837
3.419626467	101.0544
3.417372212	101.0495
3.415120926	101.0295
3.412872605	100.9919
3.410627242	100.9636
3.408384831	100.9216
3.406145367	100.9031
3.403908845	100.9363
3.401675257	100.9084
3.399444599	100.9226
3.397216864	100.9768
3.394992047	101.0256
3.392770143	101.0329
3.390551144	101.0066
3.388335047	100.9744
3.386121844	100.9104
3.383912676	100.9333
3.381705245	100.9529
3.379500692	100.9397
3.377299012	100.9841
3.375100198	101.0398
3.372904246	101.0857
3.370711149	101.0569
3.368520903	101.0105
3.366333501	100.9807
3.364148938	100.9451
3.361967208	100.8435
3.359788306	100.7615
3.357612227	100.6716
3.355438965	100.6213
3.353268515	100.5549
3.35110087	100.5842
3.348937148	100.6521
3.346775098	100.7781
3.344615837	101.0398
3.342459362	101.3826
3.340305665	101.6687
3.338154741	101.8869
3.336006587	102.0056
3.333861195	102.0779
3.33171856	102.1057
3.329578678	102.0613
3.327441544	102.0857
3.32530715	102.1872
3.323175494	102.2483
3.321046568	102.2312
3.318920368	102.2385
3.31679689	102.1877
3.314676126	102.1838
3.312558073	102.2615
3.310442725	102.2912
3.308330077	102.2761
3.306220124	102.3044
3.304112861	102.3616
3.302008281	102.3655
3.299906382	102.3445
3.297808244	102.3557
3.295711686	102.4167
3.293617792	102.4138
3.291526557	102.404
3.289437976	102.4031
3.287352045	102.4011
3.285268756	102.3689
3.283188107	102.3288
3.281110091	102.3347
3.279034705	102.3616
3.276961942	102.3503
3.274891798	102.3108
3.272824267	102.2917
3.270759346	102.3074
3.268697029	102.3264
3.26663731	102.3152
3.264580186	102.2673
3.262525652	102.2815
3.260473701	102.3074
3.25842433	102.344
3.256377534	102.3044
3.254333308	102.2908
3.252291646	102.2854
3.250252545	102.3049
3.248217054	102.281
3.246183057	102.2859
3.244151606	102.3616
3.242122696	102.3747
3.240096322	102.3342
3.238072479	102.3279
3.236051163	102.3581
3.234032369	102.3122
3.232016093	102.3264
3.230002329	102.3244
3.227991073	102.3127
3.22598232	102.3337
3.223976065	102.3562
3.221972305	102.3757
3.219971033	102.365
3.217972246	102.3244
3.215975939	102.3357
3.213982108	102.3904
3.211990747	102.3367
3.210001852	102.2624
3.208015419	102.2576
3.206031443	102.2854
3.204049919	102.322
3.202070843	102.2771
3.200095235	102.2243
3.19812104	102.2424
3.196149279	102.2463
3.194179949	102.2204
3.192213043	102.2014
3.190248559	102.2468
3.18828649	102.2224
3.186326834	102.1794
3.184369586	102.1877
3.18241474	102.2307
3.180462293	102.2615
3.17851224	102.1911
3.176564577	102.0984
3.1746193	102.0276
3.172676403	101.9826
3.170735883	102.029
3.168797736	102.0354
3.166861956	102.0784
3.164928541	102.1091
3.162997484	102.0798
3.161068783	102.03
3.159142432	101.9704
3.157218427	101.9177
3.155296765	101.8752
3.153378435	101.9431
3.151461443	101.9646
3.14954678	101.969
3.147634443	102.0115
3.145724426	102.0173
3.143816726	102.0041
3.141911338	102.0217
3.140008258	101.9787
3.138107483	101.9382
3.136209007	101.9451
3.134312827	101.9592
3.132418938	102.0315
3.130527337	102.0701
3.128638019	101.9831
3.126750981	101.9612
3.124866217	101.9514
3.122984699	101.9011
3.121104471	101.863
3.119226507	101.8806
3.1173508	101.8948
3.115477349	101.8747
3.113606148	101.8557
3.111737193	101.8591
3.10987048	101.7947
3.108006006	101.7351
3.106143766	101.7048
3.104283756	101.6462
3.102425973	101.6428
3.100570412	101.6169
3.098717069	101.5574
3.096865941	101.5393
3.095017023	101.5564
3.093170311	101.4343
3.091325802	101.3459
3.089483491	101.3161
3.087643375	101.3327
3.085805449	101.3796
3.08396971	101.3869
3.082136155	101.3752
3.080304778	101.407
3.078476524	101.3733
3.076649492	101.3572
3.074824627	101.3767
3.073001926	101.3708
3.071181385	101.3806
3.069363	101.3362
3.067546766	101.3088
3.065732681	101.2888
3.06392074	101.2302
3.06211094	101.1931
3.060303276	101.1428
3.058497745	101.1384
3.056694344	101.1892
3.054893068	101.1721
3.053093914	101.1286
3.051296877	101.133
3.049501955	101.1545
3.047709144	101.0491
3.045918439	101.0095
3.044129837	100.991
3.042343335	100.9573
3.040558928	100.9255
3.038776613	100.9866
3.036996386	100.9963
3.035219166	101.0354
3.033443104	101.029
3.031669119	100.9768
3.029897208	101.0061
3.028127367	101.0642
3.026359592	101.0798
3.02459388	101.0686
3.022830228	100.9983
3.021068631	100.9177
3.019309085	100.8869
3.017551589	100.8611
3.015796137	100.8244
3.014042726	100.8386
3.012291354	100.8161
3.010542015	100.7952
3.008794707	100.8049
3.007049426	100.7209
3.005306169	100.6623
3.003564931	100.6409
3.00182571	100.6267
3.000088503	100.6252
2.998353304	100.5823
2.996620112	100.5354
2.994888923	100.553
2.993160628	100.4905
2.991433432	100.4079
2.989708228	100.2991
2.987985013	100.2341
2.986263784	100.2302
2.984544536	100.2732
2.982827267	100.2497
2.981111973	100.2248
2.97939865	100.1682
2.977687296	100.0823
2.975977906	99.9924
2.974270478	99.865
2.972565009	99.7908
2.970861493	99.8342
2.96915993	99.7615
2.967460314	99.7302
2.965763522	99.7737
2.964067792	99.6833
2.962373999	99.6228
2.960682141	99.553
2.958992215	99.4709
2.957304216	99.4021
2.955618142	99.3503
2.95393399	99.2732
2.952251756	99.3093
2.950571437	99.2947
2.94889303	99.3191
2.947216531	99.322
2.945541937	99.3064
2.943869245	99.2976
2.942198452	99.238
2.940529554	99.1697
2.938862549	99.1511
2.937197432	99.157
2.935534201	99.0935
2.933872853	99.0417
2.932213384	99.073
2.930555792	99.0671
2.928900072	99.0574
2.927246222	99.0535
2.925595095	99.0095
2.923944975	98.9607
2.922296715	98.9021
2.920650312	98.8874
2.919005763	98.8865
2.917363066	98.9236
2.915722216	98.8562
2.91408321	98.8767
2.912446047	98.8787
2.910810722	98.8894
2.909177232	98.8689
2.907545575	98.8855
2.905915747	98.9167
2.904287745	98.9499
2.902661566	98.9372
2.901037208	98.9372
2.899414666	98.9607
2.897793938	98.9646
2.896175022	98.9197
2.894557913	98.866
2.892942609	98.8611
2.891329106	98.9109
2.889717403	98.8757
2.888107495	98.8376
2.886500214	98.8523
2.884893888	98.8669
2.883289349	98.8689
2.881686594	98.8367
2.880085619	98.7742
2.878486423	98.7341
2.876889001	98.658
2.875293352	98.6501
2.873699471	98.7009
2.872107357	98.6951
2.870517006	98.657
2.868928415	98.6609
2.867341582	98.6951
2.865756502	98.7322
2.864173175	98.7244
2.862591596	98.7595
2.861011762	98.7449
2.859433672	98.7361
2.857857321	98.7361
2.856282708	98.7859
2.854709829	98.7966
2.853138681	98.781
2.851569261	98.8181
2.850001568	98.8328
2.848436408	98.9099
2.846872156	98.9431
2.845309621	98.9958
2.8437488	99.0515
2.842189691	99.0642
2.840632291	99.0515
2.839076596	99.1033
2.837522604	99.1003
2.835970313	99.0662
2.834419719	99.0818
2.83287082	99.155
2.831323613	99.2224
2.829778094	99.2712
2.828234263	99.321
2.826692114	99.4021
2.825151647	99.4451
2.823612858	99.4656
2.822075744	99.4744
2.820540303	99.4734
2.819006531	99.4314
2.817474427	99.3835
2.815943987	99.4158
2.81441521	99.5154
2.812888091	99.6257
2.811363418	99.6521
2.809839609	99.6736
2.80831745	99.7283
2.806796939	99.8142
2.805278075	99.8279
2.803760853	99.8142
2.802245271	99.7976
2.800731327	99.8454
2.799219018	99.8074
2.797708341	99.822
2.796199294	99.8611
2.794691874	99.8962
2.793186078	99.9529
2.791681905	100.0515
2.79017935	100.1062
2.788678412	100.1267
2.787179865	100.2136
2.785682151	100.2273
2.784186046	100.2244
2.782691547	100.2038
2.781198652	100.2732
2.779707358	100.3298
2.778217662	100.321
2.776729562	100.3269
2.775243056	100.3513
2.77375814	100.3904
2.772274812	100.404
2.77079307	100.3982
2.769312911	100.4285
2.767834333	100.5115
2.766357333	100.5369
2.764881908	100.5134
2.763408056	100.5076
2.761935774	100.5515
2.760465061	100.6726
2.758995913	100.6794
2.757528328	100.7556
2.756062304	100.7732
2.754597837	100.8435
2.753134926	100.8396
2.751674325	100.9333
2.750214517	100.9607
2.748756257	100.9353
2.747299542	101.0271
2.74584437	101.0554
2.74439074	101.0242
2.742938647	101.0329
2.741488091	101.0271
2.740039067	100.9997
2.738591575	100.9744
2.737145611	101.0427
2.735701174	101.0476
2.73425826	101.0779
2.732816867	101.0691
2.731376994	101.0749
2.729938636	101.0505
2.728501793	101.0701
2.727066462	101.0779
2.72563264	101.0495
2.724200325	101.0085
2.722769514	101.0525
2.721340206	101.0544
2.719912397	100.9187
2.718486086	100.9294
2.717062008	100.8484
2.715638684	100.8669
2.714216851	100.9001
2.712796505	100.9314
2.711377646	100.9216
2.709960269	100.9617
2.708544374	101.0564
2.707129958	101.0681
2.705717018	100.9997
2.704305552	100.9997
2.702895558	100.9646
2.701487034	100.9255
2.700079976	101.0046
2.698674384	101.0857
2.697270255	101.1697
2.695867585	101.1911
2.694466374	101.1999
2.693066619	101.2663
2.691668318	101.2859
2.690271467	101.2429
2.688876066	101.1755
2.687482111	101.1843
2.686089602	101.1882
2.684698534	101.2165
2.683309626	101.1921
2.681921436	101.2068
2.680534681	101.2117
2.679149359	101.1736
2.677765469	101.2234
2.676383008	101.3025
2.675001973	101.2966
2.673622363	101.2976
2.672244175	101.2663
2.670867407	101.1648
2.669492057	101.0994
2.668118123	101.1218
2.666745602	101.1101
2.665374493	101.0505
2.664004793	101.0759
2.6626365	101.154
2.66127032	101.1033
2.659904834	101.0525
2.658540748	101.0173
2.657178061	101.0515
2.65581677	101.0388
2.654456873	101.0515
2.653098368	101.1169
2.651741253	101.0749
2.650385525	101.0896
2.649031183	101.1296
2.647678224	101.113
2.646326647	101.1365
2.644976449	101.113
2.643627628	101.0779
2.642280182	101.1413
2.640934109	101.1648
2.639589407	101.1374
2.638246073	101.1189
2.636904106	101.1179
2.635563503	101.1482
2.634224263	101.0281
2.632886383	101.0017
2.631549862	100.9939
2.630214697	101.0388
2.628881577	101.074
2.627549117	101.0788
2.626218007	101.0251
2.624888245	100.9919
2.62355983	101.0915
2.622232758	101.1599
2.620907028	101.0593
2.619582638	100.9958
2.618259585	101.0906
2.616937869	101.0242
2.615617486	101.0583
2.614298435	101.0945
2.612980713	101.0544
2.61166432	101.0124
2.610349252	101.0281
2.609035507	101.0994
2.607723085	100.9822
2.606411982	100.9773
2.605102197	101.0593
2.603793727	101.0193
2.602486572	100.9851
2.601180728	100.9704
2.599876194	101.0632
2.598572968	101.1658
2.597271722	101.0749
2.595971105	101.0076
2.59467179	100.989
2.593373774	101.1023
2.592077057	101.1843
2.590781636	101.0974
2.589487509	101.0349
2.588194675	101.1033
2.58690313	101.0788
2.585612874	101.0398
2.584323905	101.0359
2.58303622	100.99
2.581749817	101.0202
2.580464695	100.9148
2.579180852	100.8396
2.577898286	100.7976
2.576616995	100.8201
2.575336976	100.9304
2.574058229	100.9929
2.572780751	101.0408
2.571504541	100.947
2.570229596	100.7869
2.568955915	100.7078
2.567683495	100.7859
2.566412994	100.8865
2.565143091	100.9626
2.563874445	100.9148
2.562607053	100.8835
2.561340913	100.946
2.560076024	101.0212
2.558812384	100.949
2.55754999	100.8562
2.556288841	100.8562
2.555028936	100.9079
2.553770272	100.8943
2.552512847	100.8601
2.55125666	100.8005
2.550001709	100.7595
2.548747991	100.7322
2.547495506	100.6775
2.546244252	100.6794
2.544994225	100.6599
2.543745426	100.6765
2.542497852	100.6951
2.5412515	100.7234
2.54000637	100.7634
2.53876246	100.8533
2.537519767	100.8562
2.536278934	100.7888
2.535038671	100.7556
2.53379962	100.8806
2.53256178	100.9148
2.531325149	100.7859
2.530089725	100.7829
2.528855506	100.7439
2.52762249	100.6872
2.526390677	100.6804
2.525160064	100.5828
2.523930648	100.5359
2.52270243	100.4646
2.521475406	100.4411
2.520249575	100.4031
2.519024936	100.4421
2.517801486	100.5154
2.516579857	100.6189
2.515358781	100.6843
2.514138889	100.7654
2.512920179	100.7078
2.511702651	100.7078
2.510486301	100.7888
2.50927113	100.8318
2.508057134	100.7312
2.506844312	100.7195
2.505632662	100.7204
2.504422183	100.7429
2.503212874	100.6872
2.502004731	100.6326
2.500797754	100.6726
2.499591942	100.7273
2.498387291	100.8161
2.497183801	100.7038
2.49598147	100.6013
2.494780296	100.6872
2.493580278	100.6726
2.492381413	100.6443
2.491183701	100.6286
2.489987139	100.6677
2.488791726	100.781
2.48759808	100.7156
2.486404959	100.6296
2.485212983	100.6062
2.484022149	100.6062
2.482832455	100.5515
2.4816439	100.6326
2.480456483	100.6286
2.479270202	100.5857
2.478085055	100.6833
2.47690104	100.782
2.475718156	100.74
2.474536402	100.7312
2.473355775	100.6872
2.472176274	100.7302
2.470997898	100.7038
2.469820644	100.6833
2.468644512	100.6326
2.467469499	100.5818
2.466295604	100.5427
2.465122826	100.6023
2.463951163	100.5671
2.462780612	100.6413
2.461611174	100.7263
2.460442845	100.7781
2.45927623	100.7966
2.458110116	100.8005
2.456945108	100.7273
2.455781204	100.6755
2.454618401	100.5818
2.4534567	100.6833
2.452296097	100.6833
2.451136592	100.6453
2.449978183	100.5828
2.448820868	100.4744
2.447664646	100.4802
2.446509516	100.5232
2.445355475	100.5564
2.444202523	100.4783
2.443050657	100.488
2.441899876	100.5329
2.440750179	100.5271
2.439601564	100.5408
2.43845403	100.5388
2.437307575	100.6247
2.436162197	100.7224
2.435017895	100.6951
2.433874668	100.5818
2.432732513	100.4665
2.431592022	100.4431
2.430452008	100.4158
2.429313063	100.4333
2.428175185	100.4587
2.427038372	100.4861
2.425902624	100.4939
2.424767938	100.5134
2.423634312	100.4861
2.422501747	100.5173
2.421370239	100.5681
2.420239788	100.529
2.419110392	100.4685
2.417982049	100.4177
2.416854758	100.449
2.415728518	100.5232
2.414603328	100.49
2.413479185	100.5701
2.412356088	100.6404
2.411234036	100.5505
2.410113027	100.5564
2.40899306	100.5876
2.407874134	100.5759
2.406756246	100.4919
2.405639396	100.5329
2.40452416	100.5193
2.40340938	100.3669
2.402295634	100.3786
2.401182919	100.363
2.400071234	100.3376
2.398960578	100.2986
2.39785095	100.4158
2.396742348	100.4275
2.39563477	100.4548
2.394528216	100.4724
2.393422683	100.4509
2.392318171	100.4548
2.391214677	100.4411
2.390112201	100.3611
2.389010742	100.2908
2.387910297	100.2204
2.386811435	100.1911
2.385713014	100.2556
2.384615605	100.3005
2.383519204	100.3005
2.382423811	100.322
2.381329425	100.3865
2.380236043	100.365
2.379143665	100.3923
2.37805229	100.4939
2.376961915	100.4958
2.375872539	100.5212
2.374784162	100.3943
2.373696781	100.3513
2.372610396	100.4001
2.371525004	100.3494
2.370440606	100.4236
2.369357198	100.5427
2.368274781	100.449
2.367193351	100.5505
2.366112909	100.7068
2.365033453	100.6384
2.363954982	100.613
2.362877493	100.5505
2.361800987	100.5974
2.360726018	100.4997
2.35965147	100.4626
2.3585779	100.4001
2.357505307	100.3201
2.356433688	100.2029
2.355363044	100.2986
2.354293372	100.3669
2.353224671	100.4802
2.35215694	100.5876
2.351090177	100.6482
2.350024382	100.5173
2.348959552	100.3552
2.347895687	100.2732
2.346832785	100.2283
2.345770845	100.0544
2.344709866	99.9997
2.343649846	100.1052
2.342590784	100.2361
2.341532678	100.3259
2.340475528	100.2458
2.339419333	100.1599
2.33836409	100.1169
2.337309798	100.2536
2.336256457	100.2283
2.335204611	100.2829
2.334153166	100.3826
2.333102667	100.4236
2.332053114	100.3552
2.331004504	100.281
2.329956838	100.2283
2.328910112	100.1677
2.327864326	100.1755
2.32681948	100.1872
2.325775571	100.3396
2.324732598	100.4607
2.32369056	100.5017
2.322649456	100.5095
2.321609284	100.4451
2.320570043	100.4548
2.319531733	100.5896
2.318494351	100.5505
2.317457897	100.5076
2.316422369	100.3396
2.315387766	100.3279
2.314354087	100.3591
2.31332133	100.3376
2.312289495	100.3161
2.31125858	100.3201
2.310229117	100.3064
2.309200038	100.3611
2.308171875	100.2615
2.307144627	100.2927
2.306118293	100.2908
2.305092872	100.2966
2.304068363	100.2048
2.303044763	100.3357
2.302022073	100.2732
2.301000291	100.3142
2.299979415	100.3767
2.298959445	100.2497
2.297940379	100.3201
2.296922216	100.4314
2.295904955	100.3454
2.294888595	100.4001
2.29387366	100.447
2.292859097	100.5857
2.291845431	100.5564
2.29083266	100.5779
2.289820785	100.5349
2.288809803	100.4138
2.287799713	100.2966
2.286790515	100.2439
2.285782206	100.1482
2.284774786	100.1267
2.283768254	100.1443
2.282762608	100.1716
2.281757848	100.0622
2.280753972	100.0388
2.279750978	100.2302
2.278748867	100.2927
2.277747636	100.2673
2.276747284	100.3396
2.275747811	100.3747
2.274749215	100.2986
2.273751494	100.2263
2.272754649	100.0779
2.271758677	100.031
2.270763578	100.0193
2.269769866	100.0505
2.268776508	100.1208
2.267784019	100.3611
2.266792398	100.447
2.265801644	100.4763
2.264811756	100.5564
2.263822732	100.6599
2.262834571	100.5622
2.261847273	100.3923
2.260860836	100.0798
2.259875259	99.8982
2.258890541	99.9997
2.257906681	100.0095
2.256923678	100.0896
2.25594153	100.1677
2.254960236	100.2126
2.253979796	100.1658
2.253000208	100.2693
2.252021471	100.406
2.251043584	100.4411
2.250066546	100.3279
2.249090355	100.3318
2.248115012	100.2419
2.247140514	100.1638
2.246167365	100.3904
2.245194554	100.3943
2.244222586	100.5232
2.243251458	100.3161
2.242281171	100.3122
2.241311723	100.406
2.240343113	100.1677
2.23937534	100.0505
2.238408402	100.1033
2.237442299	100.2888
2.23647703	100.2615
2.235512593	100.4001
2.234548988	100.4763
2.233586213	100.4783
2.232624267	100.4451
2.231663149	100.322
2.230702859	100.1872
2.229743394	100.3279
2.228784755	100.3454
2.22782694	100.2458
2.226869947	100.1814
2.225913777	100.238
2.224958427	100.2341
2.224003896	100.2126
2.223050679	100.1091
2.222097785	100.1247
2.221145707	100.2615
2.220194445	100.1794
2.219243997	100.2615
2.218294362	100.2263
2.21734554	100.3064
2.21639753	100.3142
2.215450329	100.2126
2.214503938	100.1677
2.213558355	100.2361
2.212613579	100.2966
2.211669609	100.2439
2.210726445	100.3201
2.209784084	100.3747
2.208842527	100.4177
2.207901771	100.322
2.206961817	100.1423
2.206022662	100.1052
2.205084307	100.2263
2.204146749	100.1736
2.203209989	100.2341
2.202274024	100.3279
2.201338854	100.2204
2.200404963	100.1716
2.199471379	100.1345
2.198538587	100.1404
2.197606587	100.1326
2.196675376	100.2497
2.195744954	100.1482
2.194815319	100.0037
2.193886472	100.0115
2.192958411	100.0779
2.192031134	100.2517
2.191104641	100.3201
2.190178931	100.2595
2.189254003	100.3357
2.188329856	100.2595
2.187406488	100.197
2.1864839	100.156
2.185562567	100.1501
2.184641533	100.1755
2.183721275	100.2517
2.182801792	100.1189
2.181883083	99.9158
2.180965147	99.906
2.180047983	100.0095
2.17913159	100.1326
2.178215967	100.1111
2.177301113	100.0251
2.176387028	100.0232
2.175473709	100.0954
2.174561157	100.322
2.17364937	100.2927
2.172738348	100.2048
2.171828089	100.1247
2.170918592	100.1814
2.170009856	100.3552
2.169101881	100.3005
2.168194666	100.2419
2.167288209	100.2302
2.166382509	100.2185
2.165477567	100.1951
2.16457338	100.1482
2.163670416	100.0505
2.162767737	100.2615
2.161865811	100.3142
2.160964637	100.2263
2.160064214	100.3591
2.159164542	100.363
2.158265618	100.3298
2.157367442	100.1794
2.156470014	99.9802
2.155573332	99.8454
2.154677395	99.9451
2.153782203	99.9236
2.152887754	99.8533
2.151994048	99.8064
2.151101084	99.7771
2.150208861	100.0232
2.149317377	100.0232
2.148426632	100.0857
2.147536625	99.9841
2.146647355	100.072
2.145758822	100.2849
2.144871024	100.1892
2.14398396	100.0388
2.143097629	99.9704
2.14221249	99.7986
2.141327623	99.7126
2.140443487	99.5505
2.139560081	99.4919
2.138677403	99.6365
2.137795454	99.8298
2.136914232	100.1033
2.136033736	100.1658
2.135153965	100.2068
2.134274919	100.2986
2.133396596	100.2829
2.132518995	100.5232
2.131642117	100.2908
2.130765959	100.3435
2.129890521	100.4158
2.129015803	100.3435
2.128141802	100.363
2.127268519	100.0876
2.126395952	100.0779
2.125524101	100.0486
2.124652964	99.9079
2.123782542	99.8982
2.122912832	100.0154
2.122043834	99.9529
2.121175997	100.1482
2.12030842	100.1345
2.119441553	100.0954
2.118575394	100.1423
2.117709942	100.1658
2.116845198	100.0954
2.115981159	100.1736
2.115117826	100.3279
2.114255197	100.2361
2.113393271	100.0642
2.112532047	99.9607
2.111671525	100.072
2.110811704	100.031
2.109952583	100.0876
2.109094161	100.1482
2.108236437	100.1638
2.107379855	100.0701
2.106523524	100.1111
2.105667889	100.0388
2.104812949	100.0486
2.103958703	100.1814
2.103105151	100.3064
2.10225229	100.4079
2.101400121	100.5232
2.100548642	100.4919
2.099697853	100.4939
2.098847754	100.5408
2.097998342	100.5798
2.097149617	100.5486
2.096301579	100.6091
2.095454226	100.5779
2.094607559	100.5642
2.093761575	100.3982
2.092916274	100.197
2.092071655	100.2107
2.091227718	100.0329
2.090384461	100.0154
2.089541885	99.9607
2.088699987	100.1579
2.087858767	100.3904
2.08701866	100.4079
2.086178794	100.1404
2.085339604	100.1247
2.084501088	100.1423
2.083663247	100.2986
2.082826078	100.2107
2.081989583	100.1013
2.081153758	100.1482
2.080318605	100.1345
2.079484122	100.3064
