Name: Almandine Fe3+2Al2(SiO4)3
Type:  Mineral
Class:  Silicates
Subclass:  Nesosilicates (Isolated Tetrahedra) (Garnet Group)
Particle Size:  Fine (less than 2 Micrometer)
Sample No.:  almandine.1
Owner:  JHU
Wavelength Range:  IR
Origin:  Sample from Stikine River, Fort Wrangell, Alaska, USA via the 
Smithsonian (sample no. NMNH 104490-7).
Description: The sample was a single deep maroon crystal about 2 cm 
in diameter with good crystal faces, except for one fractured edge.  
Weight was 17 g.  A thin, soft, almost transparent film was buffed off 
crystal faces.  Microscopic examination showed contamination by 
about 1% opaques and 1% quartz.

Measurement:  Transmission 
First Column:  X
Second Column:  Y  
X Units:  Wavelength (micrometers)
Y Units:  Transmittance (percent)
First X Value:  25.0442
Last X Value:  2.079
Number of X Values:  2287
Additional Information: almand1a.txt

25.04420302	68.5311
24.9237955	70.1092
24.80454022	70.6014
24.68642074	70.2342
24.5694209	69.0936
24.45352485	67.0233
24.33871706	65.1131
24.22498226	63.6014
24.11236361	62.4881
24.00072962	61.4608
23.89012454	60.1131
23.78053421	58.7381
23.67194472	57.3045
23.56434244	55.6092
23.45771395	53.9725
23.35204611	52.1952
23.24732598	50.0936
23.14354087	47.9022
23.04067832	45.6874
22.93872607	43.4843
22.83767211	41.5643
22.7375046	39.5897
22.63821194	37.4062
22.53978272	35.164
22.44220571	32.7734
22.3454699	30.2577
22.24956446	28.1093
22.15447875	26.4238
22.06020229	25.5663
21.96672481	25.9218
21.87403618	27.3906
21.78212646	29.6366
21.69103293	31.6972
21.60065148	32.6112
21.5110201	31.828
21.42212949	29.705
21.33397051	27.5077
21.24653416	25.7617
21.15981159	24.4374
21.0737941	23.9238
20.98847313	24.1035
20.90384024	24.7734
20.81988716	25.9159
20.73660571	27.3222
20.65398787	28.7421
20.57202575	30.1405
20.49071156	31.5019
20.41003766	32.871
20.3299965	34.3378
20.25058069	35.8612
20.1717829	37.3261
20.09359597	38.9999
20.01601281	40.6952
19.93902646	42.3593
19.86263005	43.8397
19.78681684	45.0487
19.71161901	46.0858
19.63695203	46.9042
19.56284859	47.5565
19.48930232	48.3397
19.41630698	49.2342
19.34385639	50.3046
19.27194448	51.6561
19.20056526	52.8407
19.12971284	53.3319
19.05938141	53.1727
18.98956523	52.828
18.92025868	52.7772
18.85145618	53.3524
18.78315226	54.7167
18.71534153	56.8241
18.64801865	59.5936
18.58121291	62.8172
18.51484984	66.0194
18.44895911	68.8563
18.38353571	71.1522
18.31857467	72.8279
18.25407111	73.6365
18.19002023	73.4109
18.12641726	72.0838
18.06325753	69.408
18.00053642	65.5018
17.93824937	60.8641
17.8763919	55.7733
17.81495958	50.6249
17.75394803	46.2011
17.69335296	42.9384
17.63317011	41.2274
17.57339529	40.9501
17.51402436	41.7313
17.45505324	43.2391
17.39647791	44.9657
17.3382944	46.5243
17.28049878	47.8827
17.2230872	49.0585
17.16605584	50.0829
17.1094302	51.0663
17.05314784	52.3046
16.99723455	53.9217
16.94168671	55.829
16.88650076	58.0487
16.83167317	60.453
16.77720046	62.9452
16.72307919	65.3563
16.66930597	67.6131
16.61587747	69.7313
16.56279037	71.5193
16.51004141	72.9354
16.45762737	74.2469
16.40554507	75.4471
16.35379138	76.4812
16.30236319	77.4422
16.25125744	78.4158
16.20047111	79.285
16.15000121	80.1287
16.0998448	80.9744
16.04999896	81.6111
16.00046081	82.0203
15.95122753	82.2517
15.90229629	82.2478
15.85368947	81.8758
15.80535391	81.2947
15.75731218	80.6521
15.70956162	79.9578
15.6620996	79.743
15.61492349	80.2625
15.56803074	81.2117
15.52141878	82.5818
15.47508511	84.1853
15.42902725	85.6365
15.38324273	86.9578
15.33772913	88.2117
15.29248405	89.2713
15.24750513	90.1384
15.20279002	90.8435
15.1583364	91.5535
15.114142	92.113
15.07020455	92.4529
15.02652181	92.8582
14.98309158	93.2195
14.93991168	93.488
14.89697994	93.7156
14.85429423	93.823
14.81185244	93.8552
14.76967431	93.9275
14.72771402	93.8416
14.68599147	93.6609
14.64450465	93.5544
14.60325156	93.405
14.56223023	93.0447
14.52143873	92.6775
14.48087511	92.323
14.44053748	91.866
14.40042395	91.408
14.36053266	91.2859
14.32086177	91.4275
14.28140946	91.5056
14.24217393	91.5828
14.20315338	91.5564
14.16434607	91.322
14.12575025	90.9187
14.0873642	90.5271
14.0491862	90.1218
14.01121458	89.5916
13.97344765	89.0799
13.93588379	88.6521
13.89852134	88.1482
13.86135869	87.7488
13.82441336	87.4597
13.78764544	87.1668
13.75107258	86.8523
13.71469324	86.5491
13.67850587	86.1858
13.64250897	85.6931
13.60670103	85.1502
13.57108057	84.5603
13.53564612	83.9451
13.50039624	83.3523
13.46532947	82.7879
13.4304444	82.2693
13.39573962	81.7537
13.36121373	81.325
13.32686536	80.8221
13.29269314	80.2918
13.25871329	79.7967
13.22488924	79.3016
13.19123732	78.7537
13.15775623	78.2249
13.12444467	77.6561
13.09130135	76.9959
13.05832501	76.4002
13.02551438	75.8123
12.99286821	75.0525
12.96038529	74.2444
12.92806437	73.4139
12.89590426	72.553
12.86390376	71.7205
12.83206168	71.0042
12.80037684	70.452
12.7688481	70.1409
12.73747429	69.9222
12.70625427	69.5257
12.67518693	68.9593
12.64427113	68.348
12.61350579	67.637
12.58288979	66.7576
12.55242205	65.9744
12.52210151	65.3875
12.4919427	65.0125
12.46191328	64.8201
12.43202789	64.7034
12.40228549	64.5726
12.37268507	64.3656
12.34322561	64.0916
12.31390609	63.5828
12.28472554	63.016
12.25568296	62.4334
12.22677738	61.8011
12.19800782	61.0643
12.16937334	60.3206
12.14087298	59.5804
12.1125058	58.7635
12.08427087	57.8734
12.05616727	56.9066
12.02819409	55.9281
12.00035041	54.9242
11.97263534	53.8988
11.945048	52.7386
11.9175875	51.4842
11.89025297	50.2562
11.86304353	48.9647
11.83595835	47.5844
11.80901051	46.1679
11.78217122	44.6937
11.75545365	43.2894
11.72885698	41.8534
11.70238038	40.4379
11.67602305	38.9647
11.64978419	37.475
11.62366299	35.9091
11.59765866	34.2758
11.57177043	32.6073
11.54599752	30.9628
11.52033916	29.3515
11.49479458	27.8027
11.46936304	26.5351
11.44404378	25.7138
11.41883606	25.5082
11.39373914	25.9926
11.3687523	27.1347
11.34387482	28.7382
11.31910597	30.5551
11.29444505	32.1864
11.26989136	33.1371
11.24544419	33.0395
11.22110285	31.9267
11.19687921	30.1703
11.17274743	28.3417
11.14871946	26.9472
11.12479461	26.2509
11.10097222	26.3066
11.07725165	27.0536
11.05363222	28.3344
11.03011331	29.9067
11.00669427	31.58
10.98337447	33.2773
10.96015327	34.9438
10.93703005	36.5434
10.9140042	38.078
10.89107509	39.6391
10.86824213	41.2929
10.8455047	43.1649
10.82287393	45.3368
10.80032574	47.7655
10.77787131	50.3578
10.75551005	52.9354
10.73324139	55.3993
10.71106474	57.5389
10.68897956	59.2577
10.66698525	60.4842
10.64508128	60.9891
10.62326708	60.2406
10.6015421	58.2777
10.5799058	55.5116
10.55835763	51.9364
10.53689705	47.8202
10.51552354	43.4227
10.49423657	38.9989
10.4730356	34.8358
10.45192012	31.1132
10.43088962	27.9345
10.40994358	25.5317
10.38908149	24.0624
10.36830285	23.561
10.34760717	23.9028
10.32699394	24.9013
10.30647329	26.3066
10.28602345	27.8779
10.26565461	29.5107
10.24536628	31.0321
10.22515798	32.4169
10.20502924	33.6059
10.1849796	34.5458
10.16500858	35.2118
10.14511574	35.643
10.12530059	35.8564
10.10556271	35.9535
10.08590162	36.0316
10.0663169	36.1249
10.04680808	36.2509
10.02737473	36.5063
10.00801642	36.9589
9.98873271	37.5785
9.969523168	38.3007
9.950387369	39.1322
9.931324888	40.1488
9.912335307	41.2728
9.893418206	42.4633
9.874573172	43.7382
9.855799793	45.0204
9.83710734	46.2743
9.818476015	47.5287
9.799915133	48.7694
9.781424293	49.9183
9.7630031	50.9813
9.744651161	51.9847
9.726368087	52.91
9.70815349	53.7645
9.690006986	54.5438
9.671928196	55.2914
9.653916739	55.9608
9.635972241	56.5292
9.618094328	57.0394
9.600282632	57.536
9.582536785	57.9793
9.564856422	58.411
9.547241181	58.7791
9.529690704	59.0936
9.512204634	59.4168
9.494782617	59.7152
9.477424301	59.9432
9.460129339	60.0941
9.442897383	60.2694
9.42572809	60.4461
9.408629972	60.5379
9.391584952	60.6327
9.374601579	60.7264
9.35767952	60.6971
9.340818443	60.62
9.324018018	60.6156
9.307277919	60.5916
9.290597822	60.5741
9.273977405	60.6546
9.257416348	60.8299
9.240914333	61.0262
9.224471046	61.2752
9.208086173	61.6209
9.191759404	61.9852
9.17549043	62.3905
9.159278945	62.8172
9.143124645	63.2992
9.127027227	63.8524
9.110986392	64.4227
9.095001842	65.0218
9.079073281	65.6639
9.063200415	66.3631
9.047382954	67.0623
9.031620607	67.6864
9.015921215	68.3065
9.000268208	68.9197
8.984669459	69.5096
8.969124685	70.0789
8.953633608	70.6151
8.93819595	71.1834
8.922811435	71.7469
8.907479789	72.2425
8.89220074	72.7342
8.876974017	73.2039
8.861799353	73.6033
8.846676481	73.9275
8.831605135	74.1922
8.816585054	74.4246
8.801615977	74.6932
8.786697643	74.8973
8.771837489	75.055
8.757019846	75.2776
8.742252179	75.5438
8.727534236	75.7723
8.712865766	76.0076
8.69824652	76.2967
8.683676252	76.5843
8.669154714	76.8938
8.654681663	77.2561
8.640256858	77.5921
8.625880055	77.8089
8.611551018	77.9632
8.597269507	78.0955
8.583035287	78.2161
8.568848124	78.368
8.554707784	78.5745
8.540614036	78.7522
8.52656665	78.9353
8.512565398	79.1873
8.498610052	79.4309
8.484700388	79.6941
8.470836182	80.0257
8.45701721	80.4124
8.443243252	80.7508
8.429521195	81.0984
8.415836585	81.5413
8.402196334	81.971
8.388600228	82.3597
8.375048052	82.7898
8.361539594	83.2151
8.348074642	83.6404
8.334652987	84.1165
8.32127442	84.5857
8.307938734	84.9588
8.294645723	85.3672
8.281395183	85.8018
8.268186911	86.2061
8.255020704	86.5672
8.241896361	86.9551
8.228813685	87.3308
8.215772476	87.6326
8.202772537	87.9346
8.189813674	88.2683
8.176895691	88.5867
8.164018395	88.8465
8.151181595	89.1192
8.1383851	89.3858
8.125628721	89.5996
8.11291885	89.8601
8.100242116	90.0994
8.087604937	90.281
8.075007126	90.4431
8.062448501	90.6348
8.049928879	90.7979
8.037448078	90.9531
8.025005918	91.1277
8.012602221	91.322
8.000236807	91.5154
7.9879095	91.6914
7.975620124	91.8464
7.963368505	92.0007
7.951154468	92.1892
7.938977841	92.366
7.926838452	92.5193
7.914736131	92.699
7.902670708	92.9021
7.890642014	93.0945
7.878649883	93.2673
7.866694148	93.4392
7.854774643	93.5713
7.842891203	93.6677
7.831043667	93.7627
7.819237984	93.8945
7.807461747	93.9871
7.795720929	94.0742
7.784015369	94.1716
7.772344909	94.2361
7.760709391	94.3145
7.749108659	94.3962
7.737542556	94.4651
7.726010929	94.5701
7.714513623	94.6572
7.703050485	94.7227
7.691621363	94.7852
7.680226106	94.8779
7.668864563	94.9822
7.657536586	95.0928
7.646242025	95.1863
7.634986562	95.2805
7.623758376	95.3982
7.612563165	95.4675
7.601400786	95.5457
7.590271094	95.6289
7.579173946	95.6707
7.568109199	95.6985
7.557076711	95.7527
7.546076342	95.8069
7.535107952	95.8142
7.524171401	95.8672
7.51326655	95.9402
7.502393263	95.9792
7.491551403	96.0234
7.480740833	96.0759
7.469961418	96.1318
7.459213023	96.1719
7.448495516	96.2246
7.437808762	96.2793
7.42715263	96.3301
7.416526989	96.3748
7.405931707	96.4099
7.395366655	96.4548
7.384831703	96.5032
7.374332162	96.5117
7.363857012	96.5183
7.353411579	96.5381
7.342995737	96.5439
7.33260936	96.5205
7.322252325	96.5427
7.311924506	96.5605
7.30162578	96.5818
7.291356025	96.616
7.281115117	96.6462
7.270902937	96.6082
7.260719363	96.5225
7.250564275	96.4561
7.240437554	96.3694
7.230339081	96.1999
7.220268738	96.1125
7.210226408	96.1797
7.200211974	96.2605
7.19022532	96.292
7.18026633	96.293
7.17033489	96.2588
7.160430886	96.1875
7.150554204	96.1638
7.14070473	96.1804
7.130887439	96.1511
7.121092034	96.2195
7.111323503	96.3467
7.101581735	96.4346
7.091866622	96.4883
7.082178053	96.5915
7.07251592	96.6775
7.062880115	96.7178
7.053270531	96.7615
7.04368706	96.7864
7.034129597	96.7952
7.024598035	96.7986
7.01509227	96.7891
7.005612196	96.7556
6.99615771	96.6658
6.986728709	96.5398
6.977325089	96.333
6.967946748	96.1248
6.958593585	95.948
6.949265497	95.7747
6.939962385	95.5986
6.930684149	95.4773
6.921430687	95.4255
6.912201903	95.4275
6.903002461	95.5154
6.893822721	95.6641
6.884667364	95.8369
6.875536292	95.9822
6.866429409	96.1326
6.857346618	96.3035
6.848287825	96.4363
6.839252935	96.5381
6.830241852	96.6152
6.821254483	96.623
6.812290735	96.6182
6.803350514	96.6523
6.794433728	96.6716
6.785540285	96.6775
6.776670093	96.7097
6.767823062	96.7051
6.7589991	96.7283
6.750198118	96.7849
6.741420026	96.8494
6.732664735	96.8699
6.723932156	96.8582
6.7152222	96.8679
6.70653478	96.9031
6.697869809	96.9375
6.689231675	96.9668
6.680611329	97.0039
6.672013173	97.03
6.663437121	97.0657
6.654883087	97.1133
6.646350987	97.1309
6.637840737	97.1506
6.629352253	97.2351
6.620885451	97.3008
6.612440248	97.3406
6.604016563	97.331
6.595614312	97.281
6.587233415	97.2266
6.578873789	97.1472
6.570535354	97.0664
6.56221803	96.9912
6.553926031	96.9319
6.545650677	96.8879
6.537396194	96.8701
6.529162504	96.8474
6.520949529	96.7998
6.512757189	96.7693
6.504585407	96.6863
6.496434107	96.6121
6.488303211	96.574
6.480192643	96.582
6.472102327	96.5752
6.464032186	96.5596
6.455982145	96.5703
6.44795213	96.5144
6.439942066	96.4297
6.431951879	96.3284
6.423981494	96.2158
6.416030838	96.1194
6.408099838	96.0713
6.400188422	96.0535
6.392296516	96.0391
6.384424048	96.0068
6.376570948	95.9626
6.368737143	95.8936
6.360926609	95.8137
6.353131172	95.7227
6.34535482	95.6345
6.33759748	95.5447
6.329859085	95.4707
6.322139564	95.3894
6.314438848	95.3137
6.30675687	95.2363
6.29909356	95.1248
6.291448851	94.959
6.283822676	94.7888
6.276214965	94.6086
6.268625654	94.3818
6.261054675	94.1257
6.253501961	93.8372
6.245967447	93.5173
6.238451067	93.1924
6.230952756	92.8701
6.223472449	92.5283
6.21601008	92.1697
6.208565585	91.8399
6.201138901	91.5203
6.193729963	91.1433
6.186338708	90.7842
6.178968891	90.5303
6.171612803	90.3616
6.164274209	90.2434
6.156953047	90.2276
6.149649255	90.3037
6.14236277	90.4207
6.135093533	90.5623
6.12784148	90.7666
6.120606552	90.9675
6.113388688	91.1423
6.106187828	91.3484
6.099003911	91.5261
6.091836878	91.6553
6.084686669	91.7478
6.077553226	91.8054
6.070436489	91.8054
6.063336399	91.7517
6.056252899	91.6514
6.049185931	91.4883
6.042135436	91.2998
6.035101357	91.1006
6.028083636	90.8748
6.021082217	90.5567
6.014097043	90.2371
6.007131667	89.9954
6.000178805	89.8994
5.99324202	89.959
5.986321256	90.2273
5.979416457	90.5928
5.972527568	91.0625
5.965654534	91.6055
5.9587973	92.1025
5.951955813	92.5498
5.945130017	92.9981
5.938319859	93.364
5.931525286	93.6602
5.924746243	93.9766
5.917982678	94.2781
5.911234538	94.4863
5.904501769	94.6377
5.89778432	94.78
5.891082139	94.8904
5.884395172	94.9778
5.87772337	95.0574
5.871066679	95.1287
5.864425049	95.1973
5.857798428	95.2354
5.851186767	95.2039
5.84459343	95.1453
5.838011527	95.1201
5.831444431	95.0681
5.824892094	95.0085
5.818354465	94.9548
5.811831494	94.991
5.805323133	94.9802
5.798829332	94.9285
5.792350043	94.8838
5.785885217	94.8328
5.779434806	94.7646
5.772998761	94.6846
5.766577035	94.6465
5.760169579	94.6199
5.753776347	94.6052
5.747397291	94.5994
5.74103566	94.5828
5.734684807	94.6035
5.72834799	94.5986
5.722025162	94.5759
5.715716276	94.5642
5.709421287	94.5349
5.703140149	94.5254
5.696872816	94.5051
5.690619242	94.4678
5.684379382	94.4434
5.678153192	94.4326
5.671940626	94.3818
5.66574164	94.3435
5.659556189	94.3232
5.653384229	94.2918
5.647225716	94.2637
5.641080605	94.2244
5.634948854	94.2109
5.628830419	94.1982
5.622725256	94.1814
5.616633323	94.167
5.610554575	94.1592
5.604488971	94.1406
5.598436469	94.124
5.592400152	94.1064
5.586373717	94.0994
5.580360257	94.0967
5.574359729	94.0876
5.568372092	94.0791
5.562397304	94.0742
5.556435324	94.0579
5.550486112	94.0322
5.544549625	94.0049
5.538625823	93.9856
5.532714665	93.9854
5.526816112	93.9714
5.520930122	93.95
5.515056656	93.9277
5.509195674	93.918
5.503347136	93.96
5.497511002	93.9766
5.491687233	93.9561
5.48587579	93.9919
5.480076633	94.01
5.474289725	94.0027
5.468515025	94.0147
5.462752495	94.032
5.457002098	94.0439
5.451266765	94.0525
5.445540511	94.0544
5.439826274	94.0391
5.434124016	94.0125
5.428433701	93.989
5.422755291	93.9746
5.417088748	93.9522
5.411434035	93.9334
5.405791116	93.9421
5.400159953	93.9209
5.394540509	93.8728
5.388932749	93.8425
5.383336635	93.8225
5.377752132	93.79
5.372179203	93.7517
5.366617813	93.696
5.361067925	93.6589
5.355529504	93.6345
5.350002515	93.594
5.344486921	93.5537
5.338982689	93.542
5.333489782	93.5547
5.328008167	93.5381
5.322537807	93.5359
5.317081497	93.5352
5.31163354	93.4998
5.306196736	93.4607
5.30077105	93.4363
5.295356449	93.4207
5.289952898	93.3962
5.284560364	93.3914
5.279178813	93.4275
5.273808212	93.4187
5.268448526	93.4099
5.263099724	93.4238
5.257761771	93.3992
5.252434635	93.3738
5.247118283	93.3728
5.241812682	93.3943
5.236517799	93.3943
5.23123634	93.4082
5.225962792	93.415
5.220699866	93.4109
5.21544753	93.3945
5.210205751	93.3767
5.204974498	93.3701
5.19975374	93.3435
5.194543444	93.3494
5.189343579	93.3457
5.184154115	93.322
5.178975019	93.3259
5.173806261	93.3357
5.168647809	93.3389
5.163499634	93.2859
5.158361704	93.2617
5.153233989	93.2439
5.148116459	93.241
5.143009082	93.2275
5.137911829	93.2295
5.13282467	93.2351
5.127747575	93.2302
5.122680514	93.2285
5.117623458	93.2227
5.112576376	93.2009
5.107541847	93.1668
5.102514621	93.1377
5.097497282	93.1045
5.0924898	93.0896
5.087492146	93.0671
5.082504292	93.0593
5.077526209	93.0369
5.072557868	93.033
5.06759924	92.9978
5.062650297	92.9763
5.057711011	92.9441
5.052781354	92.907
5.047861297	92.863
5.042950812	92.8616
5.038049872	92.8479
5.033158448	92.8489
5.028276513	92.8435
5.023404039	92.8416
5.018541	92.8186
5.013687367	92.7888
5.008843113	92.7517
5.004008211	92.7185
4.999182634	92.6853
4.994366355	92.6716
4.989561837	92.6487
4.984764069	92.6282
4.979975518	92.6062
4.97519616	92.6101
4.970425966	92.6194
4.96566491	92.6184
4.960912967	92.6057
4.95617011	92.5813
4.951436313	92.5466
4.94671155	92.5388
4.941995795	92.5227
4.937289023	92.467
4.932591209	92.4363
4.927902325	92.429
4.923222347	92.4089
4.918551251	92.385
4.913889009	92.386
4.909235598	92.3757
4.904590991	92.3479
4.899955165	92.3337
4.895328095	92.3093
4.890709754	92.2986
4.88610012	92.2849
4.881499167	92.261
4.876909249	92.2542
4.87232558	92.2263
4.86775052	92.2044
4.863184043	92.1721
4.858626126	92.137
4.854076745	92.114
4.849535875	92.0662
4.845003493	92.0564
4.840479575	92.0808
4.835964098	92.0691
4.831457037	92.0525
4.826958369	92.0276
4.822468072	92.0139
4.81798612	91.9807
4.813512492	91.9441
4.809047164	91.9304
4.804590113	91.8953
4.800141316	91.8958
4.79570075	91.929
4.791268392	91.926
4.78684422	91.9187
4.782428211	91.8962
4.778020342	91.866
4.773620591	91.8054
4.769231209	91.78
4.764847623	91.7737
4.760472086	91.7522
4.756104579	91.7161
4.751745078	91.7063
4.747393562	91.6848
4.743050009	91.6585
4.738714396	91.6326
4.734386703	91.614
4.730066907	91.5813
4.725754987	91.5652
4.721450921	91.572
4.717154688	91.5466
4.712866266	91.5154
4.708585635	91.5095
4.704312773	91.4978
4.700049868	91.4597
4.695792476	91.4544
4.69154279	91.4324
4.68730079	91.4085
4.683066453	91.4119
4.67883976	91.3987
4.67462069	91.3757
4.670409221	91.3543
4.666205334	91.3421
4.662009009	91.2937
4.657820224	91.2537
4.65363896	91.242
4.649465195	91.2346
4.645298911	91.2273
4.641140087	91.2254
4.636988702	91.239
4.632844738	91.22
4.628708174	91.2092
4.62457899	91.2058
4.620457167	91.1799
4.616342684	91.1389
4.612235523	91.1355
4.608135664	91.1292
4.604043086	91.0964
4.599959888	91.0896
4.595881814	91.0701
4.591810964	91.0466
4.58774732	91.0379
4.583690861	91.0076
4.57964157	90.9905
4.575599426	90.9627
4.571564412	90.95
4.567536508	90.9148
4.563515696	90.8611
4.559501956	90.8172
4.555495271	90.8059
4.551495621	90.7815
4.547502989	90.7688
4.543517355	90.7742
4.539538701	90.7639
4.535567009	90.7341
4.531602261	90.6922
4.527644439	90.6614
4.523693523	90.614
4.519749497	90.6121
4.515812343	90.5735
4.511882041	90.5051
4.507958575	90.4739
4.504043956	90.4695
4.500134104	90.4671
4.496231034	90.4744
4.492334729	90.4802
4.488445171	90.5164
4.484562343	90.532
4.480686226	90.4846
4.476816804	90.4177
4.47295406	90.3718
4.469097975	90.3591
4.465248534	90.3167
4.461405718	90.2615
4.45756951	90.2371
4.453739894	90.2195
4.449916853	90.1858
4.44610037	90.1965
4.442290427	90.2019
4.438487009	90.1814
4.434690097	90.1643
4.430899676	90.1463
4.42711573	90.1204
4.42333824	90.0896
4.419567192	90.0974
4.415802568	90.0662
4.412046298	90.0481
4.408294471	90.0525
4.404549018	90.0232
4.400809925	90.0105
4.397077175	89.9988
4.393350752	89.9778
4.389630639	89.9324
4.385916821	89.9099
4.382209282	89.907
4.378508006	89.8992
4.374812977	89.8684
4.371124179	89.8543
4.367441596	89.8616
4.363765214	89.8792
4.360095015	89.8484
4.356430985	89.823
4.352775003	89.8015
4.34912326	89.761
4.34547764	89.7175
4.341838126	89.6638
4.338204703	89.6174
4.334577357	89.6048
4.330956072	89.6116
4.327340832	89.5867
4.323731623	89.5955
4.320128429	89.6218
4.316531235	89.5984
4.312940028	89.5706
4.30935479	89.5393
4.305775509	89.4705
4.302202168	89.4241
4.298634754	89.3992
4.29507325	89.4007
4.291517644	89.366
4.287967919	89.3694
4.284424062	89.3933
4.280886058	89.3728
4.277353892	89.3396
4.27382755	89.3289
4.270307018	89.2976
4.266794102	89.2366
4.263285143	89.2507
4.25978195	89.2615
4.25628451	89.2381
4.252792809	89.2327
4.249306832	89.2058
4.245826565	89.1819
4.242351994	89.1414
4.238883105	89.1199
4.235419885	89.1121
4.231962319	89.0691
4.228510393	89.0628
4.225064094	89.0691
4.221623408	89.0701
4.218188322	89.0418
4.214758821	89.0252
4.211334892	88.9949
4.207916522	88.9651
4.204503696	88.9422
4.201096402	88.9646
4.197694626	88.9636
4.194298355	88.9402
4.190907575	88.9148
4.187522272	88.8909
4.184144186	88.8875
4.180769797	88.843
4.177400846	88.8147
4.174037321	88.7927
4.170679208	88.7796
4.167326493	88.78
4.163979165	88.7659
4.16063721	88.7771
4.157300615	88.7483
4.153969367	88.7058
4.150643454	88.7332
4.147322862	88.7371
4.144007579	88.7073
4.140697592	88.697
4.137392888	88.6892
4.134093455	88.659
4.130799281	88.6248
4.127510352	88.5862
4.124226656	88.553
4.120948181	88.5276
4.117674914	88.5125
4.114406842	88.4998
4.111143955	88.4964
4.107886238	88.4998
4.104635365	88.4944
4.101387951	88.4373
4.098145671	88.4002
4.094908514	88.3611
4.091676466	88.324
4.088449517	88.2957
4.085227653	88.2893
4.082010864	88.281
4.078799136	88.261
4.075592459	88.2268
4.072390819	88.1819
4.069194206	88.1541
4.066002607	88.155
4.062816011	88.157
4.059634406	88.1936
4.056457779	88.1975
4.053286121	88.1956
4.050119418	88.18
4.046957659	88.1853
4.043800833	88.1726
4.040648928	88.157
4.037501933	88.1507
4.034359836	88.1511
4.031222625	88.1702
4.028091913	88.1218
4.024964439	88.0711
4.021841819	88.0554
4.018724039	88.0081
4.01561109	87.9881
4.012502959	87.9944
4.009399637	87.9607
4.00630111	87.8987
4.00320737	87.8889
4.000118404	87.8572
3.997034201	87.7932
3.99395475	87.7713
3.990880041	87.7737
3.987810062	87.7659
3.984744803	87.7874
3.981684252	87.8089
3.978629983	87.7918
3.975578814	87.7439
3.972532323	87.6775
3.969490496	87.6409
3.966453324	87.614
3.963420797	87.6052
3.960392903	87.5901
3.957369631	87.5759
3.954350972	87.5725
3.951336915	87.5359
3.948327449	87.5022
3.945322564	87.5017
3.942322249	87.4959
3.939326493	87.4851
3.936335288	87.512
3.933348621	87.5183
3.930366483	87.5335
3.927388864	87.5217
3.924415753	87.4944
3.921447139	87.4773
3.918483014	87.4549
3.915523366	87.4197
3.912568186	87.3943
3.909617463	87.3655
3.906672714	87.3831
3.903730874	87.3694
3.90079346	87.3386
3.897860464	87.2815
3.894931876	87.2405
3.892007684	87.1931
3.889087881	87.1453
3.886172454	87.1448
3.883261396	87.1228
3.880354695	87.0877
3.877452343	87.0877
3.874554329	87.0906
3.871660644	87.0564
3.868771278	87.0628
3.865886222	87.0628
3.863005465	87.0589
3.860128998	87.0257
3.857256812	87.0291
3.854388896	87.0252
3.851525243	86.99
3.848665841	86.9431
3.845810682	86.906
3.842959755	86.8914
3.840113053	86.8616
3.837272037	86.8279
3.834433752	86.824
3.831599662	86.8142
3.828769759	86.8064
3.825944033	86.8015
3.823122474	86.801
3.820305074	86.8113
3.817491824	86.8211
3.814682714	86.8006
3.811877735	86.7757
3.809076878	86.7517
3.806280134	86.7371
3.803487494	86.7151
3.800698949	86.7146
3.797914489	86.6819
3.795134107	86.6663
3.792357792	86.6511
3.789585537	86.6389
3.786817332	86.5974
3.784053167	86.5652
3.781293036	86.5276
3.778536928	86.4832
3.775784835	86.4802
3.773036747	86.4861
3.770294079	86.4724
3.767553976	86.4612
3.764817852	86.4353
3.7620857	86.43
3.759357511	86.406
3.756633275	86.3748
3.753912985	86.3753
3.751196632	86.3465
3.748484207	86.3308
3.745775701	86.3377
3.743071107	86.3557
3.740370416	86.322
3.73767362	86.2659
3.734980709	86.2483
3.732291676	86.2498
3.729606512	86.2215
3.726925208	86.198
3.724247758	86.159
3.721574151	86.1355
3.718904381	86.1199
3.716238438	86.1233
3.713576315	86.1023
3.710918003	86.0896
3.708263494	86.0828
3.705614154	86.0613
3.702967225	86.0164
3.700324074	85.992
3.697684695	85.9676
3.695049078	85.9402
3.692417215	85.9099
3.689789099	85.908
3.687164722	85.9124
3.684544075	85.8968
3.68192715	85.8982
3.67931394	85.8909
3.676704437	85.866
3.674098633	85.8211
3.67149652	85.7796
3.66889809	85.7757
3.666303336	85.7498
3.663713591	85.7332
3.661126162	85.7176
3.658542385	85.7151
3.655962253	85.678
3.653385757	85.6599
3.65081289	85.6726
3.648243644	85.6565
3.645678012	85.6448
3.643115986	85.6468
3.640557559	85.6385
3.638002722	85.6209
3.635451469	85.596
3.632903791	85.5843
3.630359682	85.5315
3.627819133	85.4724
3.625282138	85.4534
3.622748688	85.4534
3.620218777	85.469
3.617692397	85.447
3.615169541	85.406
3.6126502	85.4021
3.610134369	85.3699
3.60762204	85.3553
3.605113204	85.3533
3.602609154	85.322
3.600107283	85.3103
3.597608885	85.3054
3.595113953	85.2859
3.592622478	85.2459
3.590134454	85.2234
3.587649874	85.2229
3.585168731	85.2556
3.582691017	85.2361
3.580216725	85.1956
3.577745848	85.2342
3.57527838	85.2307
3.572814313	85.1717
3.57035364	85.156
3.567896354	85.1619
3.565442448	85.1443
3.562991916	85.0979
3.560544749	85.1468
3.558100942	85.1546
3.555660487	85.1233
3.553223378	85.1077
3.550789607	85.076
3.548359168	85.031
3.545932054	84.9881
3.543509513	84.9651
3.541089027	84.9783
3.538671844	84.95
3.53625796	84.8933
3.533847367	84.8557
3.531440058	84.8631
3.529036026	84.8753
3.526635266	84.8553
3.524237769	84.8045
3.52184353	84.7796
3.519452542	84.7737
3.517064798	84.7127
3.514680292	84.6697
3.512299017	84.6136
3.509920967	84.5315
3.507546135	84.4182
3.505174514	84.4168
3.502806098	84.4319
3.500440881	84.4534
3.498078855	84.5296
3.495720015	84.5921
3.493364354	84.6844
3.491011866	84.7283
3.488662544	84.7381
3.486317598	84.74
3.483974588	84.7346
3.481634725	84.7029
3.479298003	84.6385
3.476964415	84.5843
3.474633956	84.5623
3.472306619	84.553
3.469982397	84.5432
3.467661284	84.5413
3.465343275	84.5471
3.463028363	84.5291
3.460716541	84.5179
3.458407804	84.4886
3.456102146	84.4749
3.453799559	84.4568
3.451500039	84.4339
3.449204769	84.4475
3.446911361	84.4099
3.444621	84.3577
3.442333682	84.3343
3.440049399	84.2791
3.437768146	84.1971
3.435489916	84.1292
3.433214704	84.031
3.430942504	83.8733
3.428673309	83.7596
3.426407114	83.6931
3.424143913	83.6253
3.421883699	83.5681
3.419626467	83.555
3.417372212	83.531
3.415120926	83.5017
3.412872605	83.5135
3.410627242	83.5252
3.408384831	83.5511
3.406145367	83.596
3.403908845	83.6463
3.401675257	83.6687
3.399444599	83.678
3.397216864	83.6897
3.3949932	83.6936
3.392771294	83.6443
3.390552294	83.6214
3.388336195	83.576
3.386122991	83.5193
3.383912676	83.4822
3.381705245	83.4568
3.379500692	83.4471
3.377299012	83.4275
3.375100198	83.4314
3.372904246	83.4119
3.370711149	83.4417
3.368520903	83.4573
3.366333501	83.4031
3.364148938	83.4007
3.361967208	83.4104
3.359788306	83.3421
3.357612227	83.2732
3.355438965	83.2132
3.353268515	83.1912
3.35110087	83.1482
3.348936026	83.1004
3.346773978	83.0862
3.344614719	83.0467
3.342459362	83.0515
3.340305665	83.0784
3.338154741	83.096
3.336006587	83.0901
3.333861195	83.0706
3.33171856	83.053
3.329578678	83.012
3.327441544	82.9886
3.32530715	82.9554
3.323175494	82.9143
3.321046568	82.8714
3.318920368	82.8675
3.31679689	82.867
3.314676126	82.8636
3.312558073	82.8709
3.310442725	82.8484
3.308330077	82.8499
3.306220124	82.8382
3.304112861	82.7947
3.302008281	82.7654
3.299906382	82.7112
3.297807156	82.6639
3.2957106	82.6214
3.293616707	82.6565
3.291526557	82.658
3.289437976	82.6365
3.287352045	82.6111
3.285268756	82.5725
3.283188107	82.5681
3.281110091	82.5564
3.279034705	82.4886
3.276961942	82.4436
3.274891798	82.4124
3.272824267	82.4202
3.270759346	82.4685
3.268697029	82.469
3.26663731	82.4353
3.264580186	82.4182
3.262525652	82.3846
3.260473701	82.3225
3.25842433	82.2561
3.256377534	82.2029
3.254333308	82.1834
3.252291646	82.1702
3.250252545	82.1853
3.248215999	82.1951
3.246182003	82.1541
3.244150553	82.1248
3.242122696	82.1097
3.240096322	82.0354
3.238072479	81.9627
3.236051163	81.9456
3.234032369	81.9046
3.232016093	81.9119
3.230002329	81.9041
3.227991073	81.8597
3.22598232	81.7854
3.223976065	81.7264
3.221972305	81.658
3.219971033	81.6033
3.217972246	81.5994
3.215975939	81.5779
3.213982108	81.5682
3.211990747	81.5555
3.210002883	81.5281
3.208016448	81.4715
3.206032471	81.4734
3.204050946	81.4305
3.202071869	81.3924
3.200095235	81.3514
3.19812104	81.3221
3.196149279	81.3074
3.194179949	81.2879
3.192213043	81.3035
3.190248559	81.2859
3.18828649	81.2576
3.186326834	81.2293
3.184369586	81.1795
3.18241474	81.1375
3.180462293	81.0994
3.17851224	81.0945
3.176564577	81.073
3.1746193	81.0037
3.172676403	80.9715
3.170735883	81.0017
3.168797736	80.9754
3.166861956	80.9139
3.164928541	80.8973
3.162998485	80.868
3.161069782	80.7957
3.15914343	80.7547
3.157219424	80.7312
3.155297761	80.6433
3.153378435	80.6346
3.151461443	80.5906
3.14954678	80.5242
3.147634443	80.4949
3.145724426	80.4744
3.143816726	80.4344
3.141911338	80.3182
3.140008258	80.2342
3.138107483	80.1619
3.136209007	80.0672
3.134312827	79.9998
3.132418938	79.9285
3.130527337	79.8738
3.128638019	79.784
3.126750981	79.7049
3.124866217	79.6375
3.122983724	79.5721
3.121103497	79.5447
3.119225534	79.5291
3.1173508	79.49
3.115477349	79.5057
3.113606148	79.5457
3.111737193	79.5799
3.10987048	79.6101
3.108006006	79.6394
3.106143766	79.6385
3.104283756	79.6424
3.102425973	79.6844
3.100570412	79.6736
3.098717069	79.6658
3.096865941	79.6609
3.095017023	79.6375
3.093170311	79.6482
3.091325802	79.5994
3.089483491	79.5662
3.087643375	79.5193
3.085805449	79.5281
3.08396971	79.493
3.082136155	79.3807
3.080304778	79.3348
3.078475576	79.3045
3.076648545	79.2635
3.074823682	79.2283
3.073001926	79.201
3.071181385	79.1834
3.069363	79.1238
3.067546766	79.0516
3.065732681	79.0476
3.06392074	79.0643
3.06211094	79.0408
3.060303276	79.0838
3.058497745	79.116
3.056694344	79.1053
3.054893068	79.1111
3.053093914	79.1131
3.051296877	79.0994
3.049501955	79.0672
3.047709144	79.1033
3.045918439	79.0818
3.044130764	79.0652
3.04234426	79.0721
3.040559852	79.0437
3.038777536	78.9451
3.036997309	78.9002
3.035219166	78.8455
3.033443104	78.7566
3.031669119	78.7146
3.029897208	78.7039
3.028127367	78.5603
3.026359592	78.4119
3.02459388	78.3318
3.022830228	78.2703
3.021068631	78.1482
3.019309085	78.1111
3.017551589	78.0936
3.015796137	78.0398
3.014042726	77.8982
3.012291354	77.7898
3.010542015	77.6727
3.008794707	77.5389
3.007049426	77.4314
3.005306169	77.3416
3.003564931	77.2625
3.001826611	77.2117
3.000089403	77.1619
2.998354203	77.0828
2.99662101	76.99
2.99488982	76.907
2.993160628	76.8338
2.991433432	76.7713
2.989708228	76.7078
2.987985013	76.6775
2.986263784	76.5818
2.984544536	76.5096
2.982827267	76.4529
2.981111973	76.326
2.97939865	76.1736
2.977687296	76.0623
2.975977906	75.9549
2.974270478	75.8289
2.972565009	75.6834
2.970861493	75.5506
2.96915993	75.3924
2.967460314	75.1961
2.965762643	75.0477
2.964066913	74.907
2.962373122	74.8084
2.960682141	74.6717
2.958992215	74.5008
2.957304216	74.3514
2.955618142	74.2508
2.95393399	74.1131
2.952251756	74.0232
2.950571437	73.8875
2.94889303	73.7625
2.947216531	73.6795
2.945541937	73.5711
2.943869245	73.4647
2.942198452	73.3524
2.940529554	73.2
2.938862549	73.0867
2.937197432	72.9647
2.935534201	72.8885
2.933872853	72.8055
2.932213384	72.7068
2.930555792	72.6033
2.928900072	72.5281
2.927246222	72.4666
2.925594239	72.41
2.92394412	72.3553
2.922295861	72.3065
2.920650312	72.2586
2.919005763	72.2225
2.917363066	72.2518
2.915722216	72.2381
2.91408321	72.242
2.912446047	72.2947
2.910810722	72.2938
2.909177232	72.2967
2.907545575	72.3084
2.905915747	72.3641
2.904287745	72.3885
2.902661566	72.4109
2.901037208	72.4461
2.899414666	72.4705
2.897793938	72.5174
2.896175022	72.5125
2.894557913	72.5877
2.892942609	72.6922
2.891329106	72.8016
2.889717403	72.9383
2.888107495	73.0477
2.886499381	73.1297
2.884893056	73.2068
2.883288517	73.24
2.881686594	73.283
2.880085619	73.4158
2.878486423	73.4627
2.876889001	73.4852
2.875293352	73.5281
2.873699471	73.5779
2.872107357	73.5623
2.870517006	73.6053
2.868928415	73.6951
2.867341582	73.7625
2.865756502	73.8719
2.864173175	73.9734
2.862591596	74.0799
2.861011762	74.1756
2.859433672	74.2147
2.857857321	74.3201
2.856283524	74.3992
2.854710644	74.4607
2.853139495	74.6102
2.851570074	74.7781
2.85000238	74.8709
2.848436408	74.9773
2.846872156	75.1141
2.845309621	75.1912
2.8437488	75.2713
2.842189691	75.3367
2.840632291	75.3631
2.839076596	75.3367
2.837522604	75.3445
2.835970313	75.3436
2.834419719	75.3611
2.83287082	75.3865
2.831323613	75.4383
2.829778094	75.4607
2.828234263	75.5398
2.826692114	75.6326
2.825151647	75.658
2.823612858	75.6932
2.822075744	75.7732
2.820540303	75.7654
2.819007326	75.7938
2.817475221	75.8416
2.81594478	75.8641
2.814416002	75.8572
2.812888882	75.868
2.811363418	75.8758
2.809839609	75.8602
2.80831745	75.992
2.806796939	76.0799
2.805278075	76.0867
2.803760853	76.1131
2.802245271	76.1463
2.800731327	76.201
2.799219018	76.2127
2.797708341	76.2459
2.796199294	76.3123
2.794691874	76.3914
2.793186078	76.4939
2.791681905	76.5525
2.79017935	76.5721
2.788678412	76.6258
2.787179088	76.6795
2.785681375	76.7518
2.784185271	76.8328
2.782691547	76.8836
2.781198652	76.9021
2.779707358	76.9852
2.778217662	77.1102
2.776729562	77.1297
2.775243056	77.1502
2.77375814	77.1697
2.772274812	77.2273
2.77079307	77.2596
2.769312911	77.3299
2.767834333	77.3963
2.766357333	77.4461
2.764881908	77.4881
2.763408056	77.5633
2.761935774	77.6062
2.760465061	77.6209
2.758995913	77.7186
2.757528328	77.7732
2.756062304	77.7732
2.754597837	77.8064
2.753134926	77.8338
2.751673568	77.907
2.75021376	77.9236
2.748755501	77.9432
2.747299542	77.9891
2.74584437	78.0477
2.74439074	78.0564
2.742938647	78.1336
2.741488091	78.16
2.740039067	78.2244
2.738591575	78.2039
2.737145611	78.2498
2.735701174	78.2693
2.73425826	78.2742
2.732816867	78.3475
2.731376994	78.3963
2.729938636	78.3943
2.728501793	78.3875
2.727066462	78.3748
2.72563264	78.3631
2.724200325	78.3553
2.722769514	78.3953
2.721340206	78.3865
2.719912397	78.4187
2.718486086	78.3797
2.71706127	78.3641
2.715637947	78.3357
2.714216114	78.3162
2.712796505	78.3045
2.711377646	78.2937
2.709960269	78.2732
2.708544374	78.3494
2.707129958	78.3826
2.705717018	78.4041
2.704305552	78.3728
2.702895558	78.3914
2.701487034	78.4422
2.700079976	78.4275
2.698674384	78.3875
2.697270255	78.4227
2.695867585	78.4178
2.694466374	78.3846
2.693066619	78.3592
2.691668318	78.4021
2.690272191	78.4764
2.688876789	78.5086
2.687482834	78.4852
2.686090323	78.4549
2.684699255	78.4031
2.683309626	78.3523
2.681921436	78.3445
2.680534681	78.2537
2.679149359	78.2547
2.677765469	78.2537
2.676383008	78.2977
2.675001973	78.3445
2.673622363	78.3328
2.672244175	78.3836
2.670867407	78.3162
2.669492057	78.2342
2.668118123	78.1805
2.666745602	78.0975
2.665374493	78.0643
2.664004793	78.0984
2.6626365	78.1521
2.661269612	78.1609
2.659904126	78.1248
2.658540041	78.1414
2.657178061	78.1463
2.65581677	78.0994
2.654456873	78.0828
2.653098368	78.0896
2.651741253	78.0896
2.650385525	78.0857
2.649031183	78.1248
2.647678224	78.1023
2.646326647	77.9617
2.644976449	77.9256
2.643627628	77.9021
2.642280182	77.8914
2.640934109	77.9373
2.639589407	77.9656
2.638246073	77.9725
2.636904106	77.9529
2.635563503	77.9412
2.634224263	77.9646
2.632886383	77.9451
2.631549862	77.8826
2.630214697	77.8719
2.628880885	77.8719
2.627548426	77.8436
2.626217317	77.7781
2.624888245	77.7547
2.62355983	77.7342
2.622232758	77.699
2.620907028	77.6756
2.619582638	77.7195
2.618259585	77.7703
2.616937869	77.7977
2.615617486	77.7859
2.614298435	77.7625
2.612980713	77.7654
2.61166432	77.7264
2.610349252	77.6756
2.609035507	77.6687
2.607723085	77.6492
2.606411982	77.5906
2.605102197	77.6014
2.603793727	77.5281
2.602486572	77.4529
2.601180728	77.492
2.599876194	77.45
2.598572968	77.4578
2.597271047	77.5164
2.595970431	77.5428
2.594671116	77.5643
2.593373774	77.6209
2.592077057	77.5936
2.590781636	77.5838
2.589487509	77.5896
2.588194675	77.6268
2.58690313	77.5994
2.585612874	77.6502
2.584323905	77.658
2.58303622	77.617
2.581749817	77.5936
2.580464695	77.6033
2.579180852	77.5994
2.577898286	77.5311
2.576616995	77.4939
2.575336976	77.4881
2.574058229	77.4178
2.572781413	77.365
2.571505202	77.3982
2.570230257	77.3768
2.568956575	77.2596
2.567684154	77.3006
2.566412994	77.2908
2.565143091	77.2244
2.563874445	77.1502
2.562607053	77.2107
2.561340913	77.2283
2.560076024	77.1561
2.558812384	77.2107
2.55754999	77.1795
2.556288841	77.1541
2.555028936	77.1853
2.553770272	77.2186
2.552512847	77.0623
2.55125666	77.0232
2.550001709	77.0096
2.548747991	76.9666
2.547495506	76.8943
2.546244252	76.9334
2.544994225	76.9744
2.543745426	76.9432
2.542498498	77.0193
2.541252146	77.076
2.540007015	77.1482
2.538763104	77.1365
2.537520411	77.0486
2.536278934	76.9432
2.535038671	76.9568
2.53379962	76.9861
2.53256178	76.9959
2.531325149	77.0721
2.530089725	77.0408
2.528855506	77.074
2.52762249	77.117
2.526390677	77.1463
2.525160064	77.1111
2.523930648	77.0271
2.52270243	76.9353
2.521475406	76.8982
2.520249575	76.9236
2.519024936	76.9725
2.517801486	76.9158
2.516579224	76.9178
2.515358148	76.8631
2.514138256	76.8807
2.512920179	76.8299
2.511702651	76.8416
2.510486301	76.8494
2.50927113	76.8865
2.508057134	76.8475
2.506844312	76.7908
2.505632662	76.7322
2.504422183	76.7693
2.503212874	76.7498
2.502004731	76.7146
2.500797754	76.6287
2.499591942	76.6346
2.498387291	76.7029
2.497183801	76.7537
2.49598147	76.6795
2.494780296	76.7107
2.493580278	76.8064
2.492381413	76.6912
2.491183701	76.6893
2.489987139	76.6932
2.488791726	76.6756
2.487597461	76.66
2.486404341	76.6248
2.485212365	76.6639
2.484022149	76.6561
2.482832455	76.574
2.4816439	76.6111
2.480456483	76.6053
2.479270202	76.5623
2.478085055	76.5994
2.47690104	76.5955
2.475718156	76.4822
2.474536402	76.4998
2.473355775	76.5076
2.472176274	76.4393
2.470997898	76.3904
2.469820644	76.3826
2.468644512	76.4373
2.467469499	76.4607
2.466295604	76.4471
2.465122826	76.4178
2.463951163	76.3084
2.462780612	76.2654
2.461611174	76.3045
2.460442845	76.2635
2.459275625	76.3553
2.458109512	76.449
2.456944505	76.3787
2.455781204	76.2908
2.454618401	76.2303
2.4534567	76.242
2.452296097	76.1893
2.451136592	76.2068
2.449978183	76.3279
2.448820868	76.3357
2.447664646	76.2361
2.446509516	76.2986
2.445355475	76.2186
2.444202523	76.0506
2.443050657	76.0643
2.441899876	76.0799
2.440750179	76.0232
2.439601564	76.0662
2.43845403	76.0779
2.437308169	76.0799
2.43616279	76.1131
2.435018488	76.1717
2.43387526	76.117
2.432733105	76.0818
2.431592022	76.1482
2.430452008	76.1971
2.429313063	76.1736
2.428175185	76.1209
2.427038372	76.0955
2.425902624	76.1521
2.424767938	76.2068
2.423634312	76.1893
2.422501747	76.0779
2.421370239	75.9959
2.420239788	76.0174
2.419110392	76.0252
2.417982049	76.0408
2.416854758	75.9959
2.415728518	75.9939
2.414603328	76.0096
2.413479185	76.0799
2.412356088	76.1365
2.411234036	76.1326
2.410113608	76.2303
2.40899364	76.2771
2.407874713	76.2068
2.406756825	76.1111
2.405639975	76.0545
2.40452416	75.9568
2.40340938	75.8865
2.402295634	75.8201
2.401182919	75.8162
2.400071234	75.7967
2.398960578	75.8143
2.39785095	75.8455
2.396742348	75.8709
2.39563477	75.867
2.394528216	75.8689
2.393422683	75.8455
2.392318171	75.8455
2.391214677	75.8709
2.390112201	75.9842
2.389010742	76.0154
2.387910297	75.9178
2.386810865	75.6814
2.385712445	75.5897
2.384615036	75.5799
2.383519204	75.658
2.382423811	75.5857
2.381329425	75.5193
2.380236043	75.533
2.379143665	75.4412
2.37805229	75.4256
2.376961915	75.4607
2.375872539	75.492
2.374784162	75.4178
2.373696781	75.5174
2.372610396	75.6404
2.371525004	75.5232
2.370440606	75.5467
2.369357198	75.4998
2.368274781	75.4607
2.367193351	75.367
2.366112909	75.4412
2.365033453	75.449
2.363954982	75.3143
2.362877493	75.3611
2.361800987	75.3768
2.36072546	75.3201
2.359650913	75.1951
2.358577344	75.3064
2.357505307	75.3377
2.356433688	75.3592
2.355363044	75.4783
2.354293372	75.5115
2.353224671	75.4764
2.35215694	75.5252
2.351090177	75.6365
2.350024382	75.5564
2.348959552	75.4412
2.347895687	75.3553
2.346832785	75.3787
2.345770845	75.4158
2.344709866	75.4217
2.343649846	75.4236
2.342590784	75.4627
2.341532678	75.4939
2.340476076	75.3846
2.33941988	75.4002
2.338364637	75.3514
2.337310345	75.2986
2.336257003	75.2264
2.335204611	75.2127
2.334153166	75.2264
2.333102667	75.2674
2.332053114	75.1502
2.331004504	75.1639
2.329956838	75.1268
2.328910112	75.0701
2.327864326	75.0779
2.32681948	75.1326
2.325775571	75.1639
2.324732598	75.0857
2.32369056	75.2107
2.322649456	75.2967
2.321609284	75.324
2.320570043	75.2439
2.319531733	75.1717
2.318494351	75.1502
2.317457897	75.0096
2.316422369	74.8436
2.315388302	74.7732
2.314354623	74.6873
2.313321865	74.7147
2.31229003	74.7674
2.311259114	74.742
2.310229117	74.8221
2.309200038	75.0018
2.308171875	75.1111
2.307144627	75.2439
2.306118293	75.3123
2.305092872	75.3201
2.304068363	75.242
2.303044763	75.199
2.302022073	75.0564
2.301000291	75.0018
2.299979415	75.0076
2.298959445	74.9549
2.297940379	74.8982
2.296922216	74.8768
2.295904955	74.9705
2.294888595	74.9627
2.293873134	74.8982
2.292858571	74.9627
2.291844905	74.9861
2.29083266	74.9236
2.289820785	74.9217
2.288809803	74.9783
2.287799713	74.9393
2.286790515	74.8553
2.285782206	74.8377
2.284774786	74.7127
2.283768254	74.5818
2.282762608	74.6814
2.281757848	74.6268
2.280753972	74.5486
2.279750978	74.6248
2.278748867	74.7107
2.277747636	74.6639
2.276747284	74.6014
2.275747811	74.6736
2.274749215	74.6717
2.273751494	74.658
2.272754649	74.6814
2.271758677	74.699
2.270763578	74.7732
2.269769351	74.7537
2.268775993	74.6951
2.267783505	74.6834
2.266792398	74.7029
2.265801644	74.7205
2.264811756	74.7049
2.263822732	74.6326
2.262834571	74.658
2.261847273	74.6033
2.260860836	74.658
2.259875259	74.7342
2.258890541	74.6482
2.257906681	74.7596
2.256923678	74.9256
2.25594153	74.8143
2.254960236	74.66
2.253979796	74.6424
2.253000208	74.6795
2.252021471	74.574
2.251043584	74.5252
2.250066546	74.4451
2.249090355	74.367
2.248115012	74.3924
2.247140514	74.4451
2.24616686	74.3143
2.24519405	74.2596
2.244222082	74.4627
2.243251458	74.5623
2.242281171	74.5721
2.241311723	74.5955
2.240343113	74.5389
2.23937534	74.492
2.238408402	74.4451
2.237442299	74.2674
2.23647703	74.2986
2.235512593	74.2654
2.234548988	74.1658
2.233586213	74.2205
2.232624267	74.2576
2.231663149	74.244
2.230702859	74.3045
2.229743394	74.2654
2.228784755	74.2908
2.227827436	74.1873
2.226870443	74.1346
2.225914272	74.2186
2.224958922	74.2772
2.224004391	74.2967
2.223050679	74.2107
2.222097785	74.3045
2.221145707	74.2986
2.220194445	74.283
2.219243997	74.2674
2.218294362	74.2596
2.21734554	74.2029
2.21639753	74.158
2.215450329	74.1756
2.214503938	74.1815
2.213558355	74.1346
2.212613579	74.0486
2.211669609	74.0467
2.210726445	74.117
2.209784084	74.119
2.208842527	74.0799
2.207901771	74.1326
2.206961817	74.1248
2.206022662	74.1014
2.205084793	74.0545
2.204147235	73.8904
2.203210474	73.8514
2.202274509	73.9705
2.201339339	74.0467
2.200404963	74.0721
2.199471379	73.9295
2.198538587	73.9842
2.197606587	74.0174
2.196675376	74.0955
2.195744954	74.1053
2.194815319	73.9803
2.193886472	73.9568
2.192958411	73.9061
2.192031134	73.8943
2.191104641	74.0232
2.190178931	74.0193
2.189254003	74.035
2.188329856	74.1053
2.187406488	74.1522
2.1864839	74.0389
2.185562089	73.8943
2.184641056	73.8514
2.183720798	73.7693
2.182801792	73.8123
2.181883083	73.824
2.180965147	73.7342
2.180047983	73.7537
2.17913159	73.7068
2.178215967	73.6717
2.177301113	73.7029
2.176387028	73.8865
2.175473709	73.8162
2.174561157	73.7615
2.17364937	73.6756
2.172738348	73.6639
2.171828089	73.7225
2.170918592	73.8084
2.170009856	73.6795
2.169101881	73.5311
2.168194666	73.7537
2.167288209	73.9803
2.166382509	73.9334
2.165477567	73.8904
2.16457338	73.8436
2.163669948	73.8709
2.162767269	73.785
2.161865344	73.6795
2.160964637	73.6248
2.160064214	73.6795
2.159164542	73.7303
2.158265618	73.9568
2.157367442	73.9178
2.156470014	73.8787
2.155573332	73.91
2.154677395	73.8279
2.153782203	73.8553
2.152887754	73.6014
2.151994048	73.4256
2.151101084	73.3709
2.150208861	73.2889
2.149317377	73.2108
2.148426632	73.2029
2.147536625	73.3201
2.146647355	73.4568
2.145758822	73.4178
2.144871024	73.5818
2.14398396	73.6443
2.143097629	73.5623
2.142212031	73.4373
2.141327165	73.3553
2.140443029	73.2889
2.139560081	73.2889
2.138677403	73.3357
2.137795454	73.3904
2.136914232	73.285
2.136033736	73.2342
2.135153965	73.3748
2.134274919	73.3279
2.133396596	73.3943
2.132518995	73.4256
2.131642117	73.4881
2.130765959	73.4881
2.129890521	73.4607
2.129015803	73.41
2.128141802	73.3357
2.127268519	73.4256
2.126395952	73.2186
2.125524553	73.0467
2.124653416	73.2381
2.123782993	73.3123
2.122913282	73.2693
2.122044284	73.2732
2.121175997	73.2303
2.12030842	73.2225
2.119441553	73.16
2.118575394	73.0662
2.117709942	73.1443
2.116845198	73.16
2.115981159	73.2264
2.115117826	73.1795
2.114255197	72.9686
2.113393271	72.8748
2.112532047	72.9764
2.111671525	73.0506
2.110811704	72.91
2.109952583	73.0936
2.109094161	73.1443
2.108236437	73.1678
2.10737941	73.367
2.10652308	73.4178
2.105667446	73.3397
2.104812949	73.3201
2.103958703	73.2967
2.103105151	73.1951
2.10225229	73.1678
2.101400121	73.1717
2.100548642	73.2303
2.099697853	73.2889
2.098847754	73.1561
2.097998342	73.0858
2.097149617	72.9998
2.096301579	73.1248
2.095454226	73.199
2.094607559	73.1873
2.093761575	73.1209
2.092916274	73.1483
2.092071655	73.1131
2.091227718	73.0623
2.090384461	72.9686
2.089541885	72.9217
2.088699987	73.0545
2.087858767	73.0975
2.087018225	73.1443
2.086178359	73.0936
2.085339169	72.9178
2.084501088	72.9959
2.083663247	72.8826
2.082826078	72.8084
2.081989583	72.9061
2.081153758	72.8553
2.080318605	72.8162
2.079484122	72.9373


