Name: Beryl Be3Al2Si6O18
Type:  Mineral
Class:  Silicates
Subclass:  Cyclosilicates (Ring Silicates)
Particle Size:  Fine (less than 2 Micrometers)
Sample No.:  beryl.2
Owner:  JHU
Wavelength Range:  IR
Origin:  Smithsonian NMNH 134700Sample from Palermo Mine, North 
Groton, New Hampshire.
Description:  Hand sample was pale green to white in color and 
appeared pure on the inside, with a small amount of surface 
discoloration.  The sample was roughly cubical, 2 cm on a side.  
Microscopic examination indicated it to be pure with a very small 
amount (much less than 1%) of alteration.

Measurement:  Transmission 
First Column:  X
Second Column:  Y  
X Units:  Wavelength (micrometers)
Y Units:  Transmittance (percent)
First X Value:  25.0442
Last X Value:  2.079
Number of X Values:  2287
Additional Information:  beryl2a.txt

25.04420302	82.5545
24.9237955	81.8592
24.80454022	80.8514
24.68642074	80.8123
24.5694209	80.7849
24.45358465	80.3279
24.3387763	80.0154
24.22504094	79.3357
24.11236361	78.3514
24.00072962	77.4529
23.89012454	76.9139
23.78053421	75.4217
23.67194472	73.8123
23.56434244	72.0701
23.45771395	70.0701
23.35204611	67.242
23.24732598	63.8397
23.14354087	59.9764
23.04067832	55.9061
22.93872607	52.2518
22.83767211	49.1796
22.7375046	46.6112
22.63821194	45.1288
22.53978272	44.5018
22.44220571	44.5429
22.3454699	45.7733
22.24956446	47.8534
22.15447875	50.4335
22.06020229	53.4569
21.96677306	56.8084
21.87408402	60.1971
21.7821739	63.2596
21.69103293	65.9764
21.60065148	68.1951
21.5110201	69.8983
21.42212949	71.2342
21.33397051	71.9842
21.24653416	72.2342
21.15981159	72.2049
21.0737941	71.8299
20.98847313	71.1736
20.90384024	69.994
20.81988716	68.5272
20.73660571	66.9862
20.65398787	65.1053
20.57202575	62.3534
20.49071156	59.1698
20.41003766	55.1014
20.3299965	50.0897
20.25058069	45.0663
20.1717829	40.8339
20.09359597	39.0272
20.01601281	40.7108
19.93906621	45.4003
19.8626695	51.076
19.78685599	55.5135
19.71161901	57.4041
19.63695203	56.9764
19.56284859	54.6922
19.48930232	51.4657
19.41630698	47.5194
19.34385639	43.4022
19.27194448	39.6483
19.20056526	36.496
19.12971284	34.2704
19.05938141	32.746
18.98956523	31.9257
18.92025868	31.9101
18.85145618	32.5868
18.78315226	33.6523
18.71534153	35.1767
18.64801865	37.0429
18.58117838	39.1913
18.51481556	41.6337
18.44892507	44.0487
18.38350191	46.7157
18.31854111	49.66
18.25407111	52.911
18.19002023	56.3788
18.12641726	59.91
18.06325753	63.1795
18.00053642	66.0291
17.93824937	68.3485
17.8763919	70.0076
17.81495958	71.2147
17.75394803	71.9822
17.69335296	72.3553
17.63317011	72.2615
17.57339529	71.9295
17.51402436	71.7381
17.45505324	71.6834
17.39647791	71.782
17.3382944	71.9188
17.28049878	71.6756
17.2230872	70.8084
17.16605584	69.2401
17.10940093	66.4891
17.05311876	62.4373
16.99720566	57.4959
16.94165801	52.6962
16.88647225	49.2186
16.83167317	48.0087
16.77720046	49.1776
16.72307919	52.1796
16.66930597	56.1688
16.61587747	60.5018
16.56279037	64.5867
16.51004141	67.9891
16.45762737	70.492
16.40554507	72.3885
16.35379138	73.6697
16.30236319	74.6619
16.25125744	75.4881
16.20047111	76.1385
16.15000121	76.699
16.0998448	77.2186
16.04999896	77.5213
16.00048641	77.6385
15.95125297	77.9314
15.90232158	78.0408
15.85368947	78.1268
15.80535391	78.1805
15.75731218	78.1258
15.70956162	78.1023
15.6620996	77.9637
15.61492349	77.5232
15.56803074	76.8396
15.52141878	75.7996
15.47508511	74.157
15.42902725	72.2586
15.38324273	70.3289
15.33772913	68.9149
15.29248405	68.5086
15.24750513	69.0701
15.20279002	69.9949
15.1583364	70.4822
15.114142	70.2625
15.07020455	69.3612
15.02652181	67.6434
14.98309158	65.2
14.93991168	62.2157
14.89700213	58.66
14.85431629	54.6532
14.81187438	50.496
14.76967431	46.5985
14.72771402	43.4579
14.68599147	41.5204
14.64450465	41.12
14.60325156	42.0399
14.56223023	44.0097
14.52143873	46.579
14.48087511	49.4481
14.44053748	52.5038
14.40042395	55.3456
14.36053266	57.9676
14.32086177	60.3358
14.28140946	62.3504
14.24217393	64.1737
14.20315338	65.7674
14.16434607	67.1033
14.12575025	68.1697
14.0873642	69.0594
14.0491862	69.6932
14.01121458	70.1863
13.97344765	70.3924
13.93590321	70.3611
13.89854065	70.2156
13.8613779	69.8309
13.82441336	69.1566
13.78764544	68.1937
13.75107258	66.9945
13.71469324	65.5955
13.67850587	63.8421
13.64250897	61.8299
13.60670103	59.6913
13.57108057	57.4261
13.53564612	55.3089
13.50039624	53.4535
13.46532947	52.0843
13.4304444	51.2679
13.39573962	50.9901
13.36121373	51.4808
13.32686536	52.6151
13.29269314	54.3168
13.25869572	56.4432
13.22487175	58.7987
13.19121992	61.1444
13.15773892	63.4574
13.12442745	65.5199
13.09130135	67.3084
13.05832501	68.7835
13.02551438	70.0101
12.99286821	71.0042
12.96038529	71.4725
12.92806437	71.6585
12.89590426	71.8807
12.86390376	72.1033
12.83206168	72.0428
12.80037684	71.7693
12.7688481	71.4568
12.73747429	71.0506
12.70625427	70.3499
12.67518693	69.4608
12.64427113	68.303
12.61350579	66.8924
12.58290562	65.2791
12.55243781	63.3104
12.52211719	61.18
12.4919427	59.0291
12.46191328	56.8792
12.43202789	54.9842
12.40228549	53.4452
12.37268507	52.2855
12.34322561	51.5174
12.31390609	51.2465
12.28472554	51.4745
12.25568296	52.0643
12.22677738	53.1229
12.19800782	54.4774
12.16937334	55.9945
12.14087298	57.617
12.1125058	59.4393
12.08427087	61.2811
12.05616727	62.9198
12.02819409	64.6956
12.00035041	66.2967
11.97263534	67.7928
11.945048	69.1912
11.9175875	70.4671
11.8902671	71.6136
11.86305761	72.6424
11.83597236	73.5389
11.80901051	74.2186
11.78217122	74.8909
11.75545365	75.3636
11.72885698	75.8343
11.70238038	76.1541
11.67602305	76.3826
11.64978419	76.5408
11.62366299	76.6019
11.59765866	76.5643
11.57177043	76.428
11.54599752	76.3514
11.52033916	76.1814
11.49479458	75.9046
11.46936304	75.6209
11.44404378	75.2244
11.41883606	74.7801
11.39373914	74.2327
11.3687523	73.7664
11.34387482	73.2684
11.31910597	72.6434
11.29444505	71.9529
11.26990406	71.2908
11.24545684	70.6644
11.22111545	70.0237
11.19687921	69.283
11.17274743	68.6155
11.14871946	67.9515
11.12479461	67.3504
11.10097222	66.5643
11.07725165	65.701
11.05363222	64.8573
11.03011331	63.8709
11.00669427	62.7127
10.98337447	61.4862
10.96015327	60.1278
10.93703005	58.7313
10.9140042	57.2225
10.89107509	55.5008
10.86824213	53.6078
10.8455047	51.6957
10.82286221	49.6215
10.80031407	47.4012
10.77785969	45.1395
10.75549848	42.8226
10.73322986	40.5043
10.71106474	38.1879
10.68897956	35.8603
10.66698525	33.828
10.64508128	31.7411
10.62326708	29.538
10.6015421	27.4745
10.5799058	25.4672
10.55835763	23.54
10.53689705	21.7797
10.51552354	20.0664
10.49423657	18.4497
10.4730356	17.1738
10.45192012	16.0244
10.43088962	15.1318
10.40994358	14.5517
10.38908149	14.4008
10.36830285	14.5883
10.34760717	15.0688
10.32699394	15.83
10.30646267	16.7744
10.28601287	17.8051
10.26564407	18.831
10.24535578	19.8427
10.22514752	20.8227
10.20502924	21.7329
10.1849796	22.6274
10.16500858	23.5219
10.14511574	24.4218
10.12530059	25.3657
10.10556271	26.3642
10.08590162	27.4003
10.0663169	28.5024
10.04680808	29.5864
10.02737473	30.5614
10.00801642	31.3559
9.98873271	31.9574
9.969523168	32.3583
9.950387369	32.6132
9.931324888	32.6508
9.912335307	32.436
9.893427994	32.0922
9.874582922	31.7021
9.855809507	31.3456
9.83710734	31.0966
9.818476015	31.0649
9.799915133	31.2138
9.781424293	31.495
9.7630031	31.9316
9.744651161	32.498
9.726368087	33.1664
9.70815349	33.9023
9.690006986	34.7113
9.671928196	35.6024
9.653916739	36.5185
9.635972241	37.4901
9.618094328	38.4716
9.600282632	39.3798
9.582536785	40.2528
9.564856422	41.0448
9.547241181	41.7069
9.529690704	42.2968
9.512204634	42.8026
9.494782617	43.161
9.477424301	43.4686
9.460138288	43.7308
9.4429063	43.9325
9.425736975	44.1229
9.408629972	44.3539
9.391584952	44.6688
9.374601579	45.0575
9.35767952	45.5409
9.340818443	46.0917
9.324018018	46.702
9.307277919	47.3563
9.290597822	48.0262
9.273977405	48.7738
9.257416348	49.4242
9.240914333	50.1468
9.224471046	50.9105
9.208086173	51.6488
9.191759404	52.3973
9.17549043	53.1371
9.159278945	53.7972
9.143124645	54.3675
9.127027227	54.8495
9.110986392	55.2796
9.095001842	55.7118
9.079073281	56.0863
9.06320863	56.4671
9.04739114	56.7948
9.031628764	57.1312
9.015921215	57.4276
9.000268208	57.6258
8.984669459	57.7621
8.969124685	57.8636
8.953633608	57.8924
8.93819595	57.8319
8.922811435	57.7269
8.907479789	57.5648
8.89220074	57.2635
8.876974017	56.8827
8.861799353	56.4989
8.846676481	56.0458
8.831605135	55.4413
8.816585054	54.7128
8.801615977	53.9999
8.786697643	53.223
8.771829795	52.4554
8.757012178	51.766
8.742244536	51.204
8.727526619	50.7714
8.712858175	50.5228
8.69824652	50.4613
8.683676252	50.4779
8.669154714	50.5277
8.654681663	50.6293
8.640256858	50.5433
8.625880055	50.2133
8.611551018	49.681
8.597269507	48.9759
8.583035287	48.0555
8.568848124	46.9315
8.554707784	45.6869
8.540614036	44.3812
8.52656665	43.0331
8.512565398	41.7147
8.498610052	40.4657
8.484700388	39.2816
8.470836182	38.1698
8.45701721	37.0805
8.443243252	35.9779
8.429514089	34.8358
8.415829502	33.5766
8.402189274	32.1191
8.388593191	30.4696
8.375041038	28.7521
8.361539594	27.0868
8.348074642	25.7287
8.334652987	24.8605
8.32127442	24.4904
8.307938734	24.5995
8.294645723	25.0742
8.281395183	25.8137
8.268186911	26.7382
8.255020704	27.8056
8.241896361	28.9269
8.228813685	30.1095
8.215772476	31.3954
8.202772537	32.8027
8.189813674	34.2792
8.176895691	35.8559
8.164018395	37.5412
8.151188239	39.3295
8.138391724	41.2316
8.125635323	43.2374
8.11291885	45.3202
8.100242116	47.5206
8.087604937	49.7504
8.075007126	51.9601
8.062448501	54.1532
8.049928879	56.3036
8.037448078	58.3758
8.025005918	60.3477
8.012602221	62.2481
8.000236807	64.1104
7.9879095	65.8438
7.975620124	67.5057
7.963368505	69.0938
7.951154468	70.6153
7.938977841	72.0399
7.926838452	73.3731
7.914736131	74.6512
7.902670708	75.9227
7.890642014	77.1082
7.878649883	78.2395
7.866694148	79.3528
7.854780812	80.4649
7.842897355	81.5086
7.831049799	82.502
7.819237984	83.4297
7.807461747	84.305
7.795720929	85.094
7.784015369	85.7383
7.772344909	86.2842
7.760709391	86.8181
7.749108659	87.2686
7.737542556	87.6846
7.726010929	88.0149
7.714513623	88.3025
7.703050485	88.5945
7.691621363	88.8955
7.680226106	89.1494
7.668864563	89.3877
7.657536586	89.5811
7.646242025	89.7957
7.634980733	89.9539
7.623752563	90.1257
7.61255737	90.3079
7.601395008	90.4502
7.590265333	90.585
7.579173946	90.7175
7.568109199	90.8362
7.557076711	90.9661
7.546076342	91.1065
7.535107952	91.24
7.524171401	91.363
7.51326655	91.4768
7.502393263	91.6182
7.491551403	91.7227
7.480740833	91.8213
7.469961418	91.918
7.459213023	92.002
7.448495516	92.1004
7.437808762	92.2166
7.42715263	92.3347
7.416526989	92.4417
7.405931707	92.5117
7.395366655	92.5996
7.384831703	92.6902
7.374326724	92.7383
7.363851589	92.803
7.353406171	92.8584
7.342990345	92.8953
7.332603984	92.9255
7.322252325	92.9441
7.311924506	93.002
7.30162578	93.0635
7.291356025	93.1082
7.281115117	93.1453
7.270902937	93.1316
7.260719363	93.1453
7.250564275	93.1628
7.240437554	93.1423
7.230339081	93.1096
7.220268738	93.1013
7.210226408	93.0505
7.200211974	92.9619
7.19022532	92.8787
7.18026633	92.7695
7.17033489	92.6387
7.160436013	92.5195
7.150559317	92.4238
7.140709829	92.3926
7.130887439	92.4338
7.121092034	92.5964
7.111323503	92.8242
7.101581735	93.0342
7.091866622	93.2256
7.082178053	93.4583
7.07251592	93.6523
7.062880115	93.7781
7.053270531	93.9316
7.04368706	94.0352
7.034129597	94.1091
7.024598035	94.1836
7.01509227	94.239
7.005612196	94.2656
6.99615771	94.2998
6.986728709	94.3252
6.977325089	94.3152
6.967946748	94.3613
6.958593585	94.4109
6.949265497	94.418
6.939962385	94.4426
6.930688952	94.4688
6.921435478	94.5007
6.912206681	94.5215
6.903002461	94.5515
6.893822721	94.5762
6.884667364	94.5908
6.875536292	94.615
6.866429409	94.6992
6.857346618	94.7559
6.848287825	94.7664
6.839252935	94.8201
6.830241852	94.8674
6.821254483	94.9138
6.812290735	94.9473
6.803350514	95.0264
6.794433728	95.137
6.785540285	95.1924
6.776670093	95.2568
6.767823062	95.3269
6.7589991	95.3965
6.750198118	95.5022
6.741420026	95.5635
6.732664735	95.6182
6.723932156	95.7139
6.715226709	95.761
6.706539278	95.783
6.697874296	95.8391
6.689231675	95.9111
6.680611329	95.9792
6.672013173	95.9902
6.663437121	96.0281
6.654883087	96.0518
6.646350987	96.0872
6.637840737	96.1472
6.629352253	96.1482
6.620885451	96.1494
6.612440248	96.2129
6.604016563	96.2383
6.595614312	96.2634
6.587233415	96.281
6.578873789	96.3093
6.570535354	96.335
6.56221803	96.3467
6.553921736	96.3591
6.545646392	96.3445
6.537391921	96.3357
6.529158241	96.3181
6.520945276	96.3174
6.512757189	96.2295
6.504585407	96.0303
6.496434107	95.9138
6.488303211	95.8379
6.480192643	95.6892
6.472102327	95.5801
6.464032186	95.573
6.455982145	95.655
6.44795213	95.7161
6.439942066	95.7546
6.431951879	95.8018
6.423981494	95.8699
6.416030838	95.9343
6.408099838	95.9248
6.400188422	95.876
6.392296516	95.8503
6.384424048	95.8428
6.376570948	95.8318
6.368737143	95.8232
6.360922563	95.7634
6.353127136	95.698
6.345350793	95.6531
6.337593464	95.5593
6.329855078	95.4475
6.322139564	95.3738
6.314438848	95.3303
6.30675687	95.2556
6.29909356	95.1384
6.291448851	95.0088
6.283822676	94.8709
6.276214965	94.6465
6.268625654	94.3477
6.261054675	93.9504
6.253501961	93.5877
6.245967447	93.3596
6.238451067	93.3142
6.230952756	93.3652
6.223472449	93.3689
6.21601008	93.241
6.208565585	93.073
6.201142747	92.8711
6.1937338	92.6492
6.186342535	92.4072
6.178968891	92.1416
6.171612803	91.7937
6.164274209	91.4199
6.156953047	91.0049
6.149649255	90.5789
6.14236277	90.0877
6.135093533	89.5195
6.12784148	89.1443
6.120606552	89.259
6.113388688	89.866
6.106187828	90.6228
6.099003911	91.2664
6.091836878	91.78
6.084686669	92.1492
6.077553226	92.4092
6.070436489	92.5947
6.063336399	92.7559
6.056252899	92.9531
6.049185931	93.2039
6.042135436	93.4172
6.035101357	93.6453
6.02808727	93.9265
6.021085843	94.1338
6.01410066	94.2351
6.007131667	94.3252
6.000178805	94.4802
5.99324202	94.6736
5.986321256	94.8359
5.979416457	94.9851
5.972527568	95.1824
5.965654534	95.3828
5.9587973	95.5322
5.951955813	95.7295
5.945130017	95.915
5.938319859	96.0967
5.931525286	96.2363
5.924746243	96.3398
5.917982678	96.4705
5.911234538	96.5937
5.904501769	96.6804
5.89778432	96.8066
5.891082139	96.8582
5.884395172	96.9226
5.87772337	96.9929
5.871066679	96.9841
5.864428488	97.0557
5.85780186	97.0828
5.851190191	97.1016
5.84459343	97.1589
5.838011527	97.2107
5.831444431	97.282
5.824892094	97.3428
5.818354465	97.3953
5.811831494	97.3762
5.805323133	97.3943
5.798829332	97.4502
5.792350043	97.4753
5.785885217	97.4783
5.779434806	97.5144
5.772998761	97.573
5.766577035	97.665
5.760169579	97.696
5.753776347	97.7058
5.747397291	97.7588
5.741032364	97.8088
5.734681519	97.8337
5.728344709	97.8581
5.722021888	97.9011
5.715713009	97.9636
5.709421287	97.9978
5.703140149	98.0041
5.696872816	97.9961
5.690619242	98.0159
5.684379382	98.0427
5.678153192	98.0613
5.671940626	98.0789
5.66574164	98.0759
5.659556189	98.0769
5.653384229	98.1318
5.647225716	98.155
5.641080605	98.1872
5.634948854	98.1814
5.628830419	98.1738
5.622725256	98.1423
5.616633323	98.123
5.610557723	98.1379
5.604492113	98.154
5.598439603	98.1553
5.592400152	98.165
5.586373717	98.1863
5.580360257	98.2129
5.574359729	98.2607
5.568372092	98.2607
5.562397304	98.2864
5.556435324	98.2888
5.550486112	98.2685
5.544549625	98.2761
5.538625823	98.2754
5.532714665	98.2683
5.526816112	98.2871
5.520930122	98.3086
5.515056656	98.3271
5.509195674	98.3125
5.503347136	98.3347
5.497511002	98.331
5.491687233	98.3445
5.48587579	98.3425
5.480076633	98.3596
5.474289725	98.3896
5.468518015	98.4412
5.462755479	98.5029
5.457005076	98.5115
5.451266765	98.532
5.445540511	98.5635
5.439826274	98.5832
5.434124016	98.5749
5.428433701	98.5867
5.422755291	98.6238
5.417088748	98.6335
5.411434035	98.6355
5.405791116	98.6433
5.400159953	98.6387
5.394540509	98.6475
5.388932749	98.6396
5.383336635	98.6335
5.377752132	98.6384
5.372179203	98.6572
5.366617813	98.6692
5.361067925	98.6758
5.355529504	98.6904
5.350002515	98.7117
5.344486921	98.708
5.338982689	98.7097
5.333492627	98.7578
5.328011006	98.7793
5.32254064	98.7851
5.317081497	98.8008
5.31163354	98.7703
5.306196736	98.7764
5.30077105	98.74
5.295356449	98.7422
5.289952898	98.7578
5.284560364	98.7732
5.279178813	98.7927
5.273808212	98.7734
5.268448526	98.7588
5.263099724	98.7598
5.257761771	98.751
5.252434635	98.7068
5.247118283	98.6738
5.241812682	98.6453
5.236517799	98.6296
5.231233603	98.6582
5.225960061	98.6682
5.220697141	98.6619
5.21544481	98.6357
5.210203036	98.5915
5.204974498	98.5478
5.19975374	98.531
5.194543444	98.5203
5.189343579	98.4892
5.184154115	98.489
5.178975019	98.4831
5.173806261	98.4958
5.168647809	98.4922
5.163499634	98.5212
5.158361704	98.5215
5.153233989	98.5349
5.148116459	98.5417
5.143009082	98.5349
5.137911829	98.5332
5.13282467	98.5586
5.127747575	98.572
5.122680514	98.5876
5.117623458	98.6035
5.112576376	98.6443
5.107539239	98.6504
5.102512018	98.6511
5.097494683	98.6501
5.092487206	98.6833
5.087489558	98.7109
5.082504292	98.7527
5.077526209	98.8066
5.072557868	98.8213
5.06759924	98.8249
5.062650297	98.8252
5.057711011	98.8245
5.052781354	98.842
5.047861297	98.8762
5.042950812	98.8957
5.038049872	98.9133
5.033158448	98.9358
5.028276513	98.9441
5.023404039	98.9582
5.018541	98.991
5.013687367	98.9846
5.008843113	98.9768
5.004010715	98.9773
4.999185133	99.0173
4.994368849	99.03
4.989561837	99.0227
4.984764069	99.0432
4.979975518	99.0642
4.97519616	99.0886
4.970425966	99.1208
4.96566491	99.1579
4.960912967	99.1902
4.95617011	99.2053
4.951436313	99.2297
4.94671155	99.2131
4.941995795	99.1672
4.937289023	99.1853
4.932591209	99.2141
4.927902325	99.2053
4.923222347	99.2185
4.918551251	99.2566
4.913889009	99.2893
4.909235598	99.3181
4.904590991	99.3635
4.899955165	99.3513
4.895328095	99.322
4.890712146	99.3225
4.886102507	99.3113
4.88150155	99.3415
4.876909249	99.3718
4.87232558	99.3918
4.86775052	99.3953
4.863184043	99.3923
4.858626126	99.3992
4.854076745	99.3894
4.849535875	99.3987
4.845003493	99.406
4.840479575	99.4402
4.835964098	99.4617
4.831457037	99.4846
4.826958369	99.5251
4.822468072	99.531
4.81798612	99.5295
4.813512492	99.5515
4.809047164	99.5618
4.804590113	99.5369
4.800141316	99.5251
4.79570075	99.5373
4.791268392	99.5408
4.78684422	99.5173
4.782430498	99.5452
4.778022625	99.5701
4.773622869	99.5813
4.769231209	99.6003
4.764847623	99.5896
4.760472086	99.6033
4.756104579	99.6023
4.751745078	99.615
4.747393562	99.6623
4.743050009	99.7058
4.738714396	99.7263
4.734386703	99.7273
4.730066907	99.7307
4.725754987	99.696
4.721450921	99.6794
4.717154688	99.6565
4.712866266	99.6736
4.708585635	99.6863
4.704312773	99.698
4.700047658	99.7297
4.695790271	99.7546
4.691540589	99.7585
4.687298593	99.7253
4.68306426	99.7322
4.67883976	99.7239
4.67462069	99.7204
4.670409221	99.7287
4.666205334	99.7248
4.662009009	99.7673
4.657820224	99.7883
4.65363896	99.824
4.649465195	99.844
4.645298911	99.8264
4.641140087	99.8298
4.636988702	99.8181
4.632844738	99.8064
4.628708174	99.8108
4.62457899	99.8298
4.620457167	99.8386
4.616342684	99.8391
4.612235523	99.8542
4.608135664	99.8386
4.604043086	99.8376
4.599957772	99.8791
4.595879702	99.8845
4.591808856	99.8772
4.587745215	99.8835
4.58368876	99.8977
4.57964157	99.8787
4.575599426	99.9001
4.571564412	99.9011
4.567536508	99.8679
4.563515696	99.8533
4.559501956	99.8674
4.555495271	99.8933
4.551495621	99.8708
4.547502989	99.8733
4.543517355	99.8728
4.539538701	99.8811
4.535567009	99.9236
4.531602261	99.9514
4.527644439	99.9675
4.523693523	99.9553
4.519749497	99.9841
4.515814382	99.9421
4.511884077	99.8967
4.507960608	99.9099
4.504043956	99.9143
4.500134104	99.9368
4.496231034	99.9773
4.492334729	99.9958
4.488445171	100.0002
4.484562343	100.0076
4.480686226	99.9353
4.476816804	99.9338
4.47295406	99.9812
4.469097975	99.9626
4.465248534	99.9123
4.461405718	99.9123
4.45756951	99.9314
4.453739894	99.9509
4.449916853	99.9333
4.44610037	99.9285
4.442290427	99.9587
4.438487009	99.9827
4.434690097	99.9504
4.430899676	99.9753
4.42711573	100.029
4.423340197	100.0188
4.419569145	100.0281
4.415804518	100.0329
4.412046298	100.0369
4.408294471	100.0598
4.404549018	100.0647
4.400809925	100.0608
4.397077175	100.0373
4.393350752	100.0798
4.389630639	100.0984
4.385916821	100.1072
4.382209282	100.1267
4.378508006	100.1545
4.374812977	100.156
4.371124179	100.137
4.367441596	100.1291
4.363765214	100.1111
4.360095015	100.1208
4.356430985	100.1199
4.352773108	100.0974
4.349121369	100.0842
4.345475751	100.0681
4.341836241	100.1072
4.338202821	100.1355
4.334577357	100.1584
4.330956072	100.1643
4.327340832	100.1775
4.323731623	100.2024
4.320128429	100.2034
4.316531235	100.1921
4.312940028	100.1306
4.30935479	100.1516
4.305775509	100.1682
4.302202168	100.1702
4.298634754	100.2009
4.29507325	100.2112
4.291517644	100.1863
4.287967919	100.1838
4.284424062	100.1995
4.280886058	100.2024
4.277353892	100.199
4.27382755	100.2019
4.270307018	100.1955
4.266792281	100.2126
4.263283325	100.2073
4.259780136	100.2151
4.256282699	100.237
4.252791	100.2287
4.249306832	100.2175
4.245826565	100.2244
4.242351994	100.2195
4.238883105	100.219
4.235419885	100.2361
4.231962319	100.2536
4.228510393	100.2654
4.225064094	100.3083
4.221623408	100.2829
4.218188322	100.2488
4.214758821	100.2678
4.211334892	100.2908
4.207916522	100.2751
4.204503696	100.3074
4.201096402	100.366
4.197694626	100.3611
4.194300114	100.3337
4.190909331	100.3132
4.187524026	100.2917
4.184144186	100.2834
4.180769797	100.3054
4.177400846	100.3284
4.174037321	100.3196
4.170679208	100.3738
4.167326493	100.3669
4.163979165	100.3479
4.16063721	100.3376
4.157300615	100.3772
4.153969367	100.4172
4.150643454	100.387
4.147322862	100.3635
4.144007579	100.4055
4.140697592	100.383
4.137392888	100.3972
4.134093455	100.3708
4.130799281	100.3225
4.127510352	100.3142
4.124226656	100.3303
4.120948181	100.3357
4.117674914	100.3635
4.114408535	100.4241
4.111145645	100.4255
4.107887925	100.4119
4.104635365	100.4104
4.101387951	100.4099
4.098145671	100.3913
4.094908514	100.365
4.091676466	100.3816
4.088449517	100.4241
4.085227653	100.3953
4.082010864	100.364
4.078799136	100.3435
4.075592459	100.3679
4.072390819	100.3694
4.069194206	100.3596
4.066002607	100.3596
4.062816011	100.3728
4.059634406	100.3577
4.056457779	100.3679
4.053286121	100.4021
4.050119418	100.4104
4.046957659	100.4241
4.043800833	100.4729
4.040648928	100.4221
4.037503563	100.3913
4.034361463	100.4148
4.031224251	100.4358
4.028091913	100.4084
4.024964439	100.4148
4.021841819	100.3967
4.018724039	100.4026
4.01561109	100.4021
4.012502959	100.3733
4.009399637	100.3796
4.00630111	100.4158
4.00320737	100.4001
4.000118404	100.4202
3.997034201	100.3772
3.99395475	100.3679
3.990880041	100.3415
3.987810062	100.3679
3.984744803	100.406
3.981684252	100.3694
3.9786284	100.4079
3.975577234	100.4084
3.972530744	100.4158
3.96948892	100.426
3.966451751	100.4148
3.963420797	100.3679
3.960392903	100.3601
3.957369631	100.3738
3.954350972	100.3747
3.951336915	100.3874
3.948327449	100.3752
3.945322564	100.4099
3.942322249	100.426
3.939326493	100.4006
3.936335288	100.362
3.933348621	100.3689
3.930366483	100.3874
3.927388864	100.3972
3.924415753	100.428
3.921447139	100.4558
3.918483014	100.4949
3.915523366	100.4714
3.912568186	100.4187
3.909617463	100.4353
3.906671188	100.428
3.90372935	100.3884
3.900791939	100.406
3.897858945	100.3909
3.894930359	100.3786
3.892007684	100.3713
3.889087881	100.3562
3.886172454	100.3503
3.883261396	100.3694
3.880354695	100.3953
3.877452343	100.387
3.874554329	100.3791
3.871660644	100.3933
3.868771278	100.3811
3.865886222	100.3479
3.863005465	100.3962
3.860128998	100.4104
3.857256812	100.4285
3.854388896	100.4104
3.851525243	100.4104
3.848665841	100.4158
3.845812161	100.3865
3.842961232	100.4143
3.840114528	100.406
3.837272037	100.407
3.834433752	100.3811
3.831599662	100.4119
3.828769759	100.4045
3.825944033	100.4187
3.823122474	100.4099
3.820305074	100.449
3.817491824	100.4338
3.814682714	100.3987
3.811877735	100.4197
3.809076878	100.4065
3.806280134	100.406
3.803487494	100.3757
3.800698949	100.3865
3.797914489	100.387
3.795134107	100.3479
3.792357792	100.3264
3.789585537	100.3537
3.786817332	100.4167
3.784053167	100.4304
3.781293036	100.4494
3.778538356	100.426
3.77578626	100.4314
3.773038171	100.4358
3.770294079	100.4084
3.767553976	100.3865
3.764817852	100.3537
3.7620857	100.3464
3.759357511	100.3523
3.756633275	100.3415
3.753912985	100.362
3.751196632	100.3752
3.748484207	100.3992
3.745775701	100.385
3.743071107	100.3552
3.740370416	100.3533
3.73767362	100.3259
3.734980709	100.2722
3.732291676	100.2522
3.729606512	100.2717
3.726925208	100.2444
3.724247758	100.2497
3.721574151	100.2488
3.718904381	100.241
3.716238438	100.2361
3.713577694	100.2244
3.71091938	100.1819
3.708264869	100.1506
3.705614154	100.1682
3.702967225	100.1589
3.700324074	100.1428
3.697684695	100.1687
3.695049078	100.1736
3.692417215	100.1902
3.689789099	100.1995
3.687164722	100.197
3.684544075	100.2053
3.68192715	100.1838
3.67931394	100.1775
3.676704437	100.1526
3.674098633	100.1272
3.67149652	100.0745
3.66889809	100.071
3.666303336	100.0686
3.663712249	100.0583
3.661124822	100.0622
3.658541047	100.094
3.655960916	100.0749
3.653384422	100.0447
3.65081289	100.0452
3.648243644	100.0979
3.645678012	100.0622
3.643115986	100.0388
3.640557559	100.0217
3.638002722	100.0144
3.635451469	99.9802
3.632903791	99.9656
3.630359682	99.9065
3.627819133	99.8923
3.625282138	99.9236
3.622748688	99.9123
3.620218777	99.8826
3.617692397	99.842
3.615169541	99.842
3.6126502	99.8396
3.610135673	99.7854
3.607623341	99.7458
3.605114504	99.7283
3.602609154	99.7273
3.600107283	99.7346
3.597608885	99.762
3.595113953	99.8025
3.592622478	99.7991
3.590134454	99.8406
3.587649874	99.8381
3.585168731	99.8381
3.582691017	99.7849
3.580216725	99.7287
3.577745848	99.7073
3.57527838	99.7019
3.572814313	99.6858
3.57035364	99.654
3.567896354	99.6404
3.565442448	99.6306
3.562991916	99.6462
3.560544749	99.6326
3.558100942	99.656
3.555660487	99.6326
3.553223378	99.592
3.550790868	99.5662
3.548360427	99.5329
3.545933311	99.5002
3.543509513	99.4548
3.541089027	99.3889
3.538671844	99.3845
3.53625796	99.3972
3.533847367	99.3757
3.531440058	99.3318
3.529036026	99.3162
3.526635266	99.2712
3.524237769	99.24
3.52184353	99.2717
3.519452542	99.2287
3.517064798	99.1736
3.514680292	99.0915
3.512299017	99.0925
3.509920967	99.0627
3.507546135	98.9768
3.505174514	98.8943
3.502806098	98.8396
3.500440881	98.8518
3.498078855	98.8992
3.495720015	98.9001
3.493365575	98.8855
3.491013085	98.9358
3.488663762	98.9568
3.486317598	98.8699
3.483974588	98.7698
3.481634725	98.7478
3.479298003	98.7361
3.476964415	98.7209
3.474633956	98.7522
3.472306619	98.739
3.469982397	98.7478
3.467661284	98.7263
3.465343275	98.7048
3.463028363	98.6467
3.460716541	98.6291
3.458407804	98.6096
3.456102146	98.5974
3.453799559	98.5784
3.451500039	98.5354
3.449203579	98.512
3.446910172	98.4006
3.444619814	98.3415
3.442332497	98.3415
3.440048216	98.3069
3.437768146	98.2244
3.435489916	98.1853
3.433214704	98.1526
3.430942504	98.1038
3.428673309	98.0544
3.426407114	97.9729
3.424143913	97.9294
3.421883699	97.8982
3.419626467	97.8699
3.417372212	97.8318
3.415120926	97.8337
3.412872605	97.8689
3.410627242	97.8435
3.408384831	97.8181
3.406145367	97.8318
3.403908845	97.822
3.401675257	97.7834
3.399444599	97.7737
3.397216864	97.7986
3.394992047	97.8103
3.392770143	97.8162
3.390551144	97.7834
3.388335047	97.7268
3.386121844	97.6956
3.383912676	97.6501
3.381705245	97.6072
3.379500692	97.5925
3.377299012	97.5901
3.375100198	97.6155
3.372904246	97.6443
3.370711149	97.6741
3.368520903	97.6623
3.366333501	97.6135
3.364148938	97.6169
3.361967208	97.5974
3.359788306	97.5417
3.357612227	97.4944
3.355438965	97.5081
3.353268515	97.51
3.35110087	97.4597
3.348937148	97.4123
3.346775098	97.3894
3.344615837	97.3826
3.342459362	97.3357
3.340305665	97.3381
3.338154741	97.3064
3.336006587	97.24
3.333861195	97.1931
3.33171856	97.1702
3.329578678	97.1189
3.327441544	97.1194
3.32530715	97.0413
3.323175494	97.0393
3.321046568	97.1057
3.318920368	97.0417
3.31679689	96.9734
3.314676126	96.9001
3.312558073	96.8826
3.310442725	96.8259
3.308330077	96.7673
3.306220124	96.7722
3.304112861	96.7737
3.302008281	96.7517
3.299906382	96.7126
3.297808244	96.6702
3.295711686	96.6565
3.293617792	96.6487
3.291526557	96.6604
3.289437976	96.6287
3.287352045	96.5984
3.285268756	96.5466
3.283188107	96.5081
3.281110091	96.5491
3.279034705	96.5232
3.276961942	96.5056
3.274891798	96.4084
3.272824267	96.3733
3.270759346	96.3655
3.268697029	96.2849
3.26663731	96.24
3.264580186	96.2205
3.262525652	96.2078
3.260473701	96.1355
3.25842433	96.0984
3.256377534	96.0027
3.254333308	95.9207
3.252291646	95.8337
3.250252545	95.782
3.248217054	95.7517
3.246183057	95.7371
3.244151606	95.7
3.242122696	95.6433
3.240096322	95.5955
3.238072479	95.5388
3.236051163	95.4109
3.234032369	95.2644
3.232016093	95.196
3.230002329	95.1755
3.227991073	95.1062
3.22598232	95.0457
3.223976065	95.0242
3.221972305	95.0046
3.219971033	94.9353
3.217972246	94.9011
3.215975939	94.8005
3.213982108	94.7224
3.211990747	94.7097
3.210001852	94.6697
3.208015419	94.6316
3.206031443	94.5847
3.204049919	94.5232
3.202070843	94.4626
3.200095235	94.4148
3.19812104	94.3923
3.196149279	94.3835
3.194179949	94.3298
3.192213043	94.2654
3.190248559	94.2673
3.18828649	94.239
3.186326834	94.2253
3.184369586	94.1775
3.18241474	94.1003
3.180462293	94.0906
3.17851224	94.0779
3.176564577	94.0193
3.1746193	93.9587
3.172676403	93.9187
3.170735883	93.9041
3.168797736	93.8875
3.166861956	93.8054
3.164928541	93.8005
3.162997484	93.7478
3.161068783	93.6453
3.159142432	93.6101
3.157218427	93.5867
3.155296765	93.4998
3.153378435	93.4714
3.151461443	93.4451
3.14954678	93.3699
3.147634443	93.2888
3.145724426	93.2937
3.143816726	93.2351
3.141911338	93.2156
3.140008258	93.1775
3.138107483	93.1697
3.136209007	93.1277
3.134312827	93.1179
3.132418938	93.0095
3.130527337	92.9002
3.128638019	92.8767
3.126750981	92.905
3.124866217	92.8543
3.122984699	92.8005
3.121104471	92.7703
3.119226507	92.7429
3.1173508	92.6931
3.115477349	92.6111
3.113606148	92.5906
3.111737193	92.5554
3.10987048	92.5466
3.108006006	92.5798
3.106143766	92.531
3.104283756	92.4646
3.102425973	92.4802
3.100570412	92.4119
3.098717069	92.3396
3.096865941	92.2615
3.095017023	92.2185
3.093170311	92.1921
3.091325802	92.1062
3.089483491	92.1355
3.087643375	92.0994
3.085805449	92.0798
3.08396971	92.0652
3.082136155	92.0974
3.080304778	92.0427
3.078476524	92.0095
3.076649492	92.0046
3.074824627	92.0144
3.073001926	91.9295
3.071181385	91.9177
3.069363	91.8826
3.067546766	91.8523
3.065732681	91.8259
3.06392074	91.7361
3.06211094	91.6599
3.060303276	91.613
3.058497745	91.5994
3.056694344	91.5857
3.054893068	91.6404
3.053093914	91.6209
3.051296877	91.5623
3.049501955	91.5837
3.047709144	91.572
3.045918439	91.5203
3.044129837	91.4461
3.042343335	91.3865
3.040558928	91.364
3.038776613	91.2507
3.036996386	91.197
3.035219166	91.1638
3.033443104	91.1648
3.031669119	91.0838
3.029897208	91.0642
3.028127367	90.9744
3.026359592	90.8797
3.02459388	90.8054
3.022830228	90.6804
3.021068631	90.5828
3.019309085	90.4763
3.017551589	90.4627
3.015796137	90.4334
3.014042726	90.3084
3.012291354	90.1765
3.010542015	90.1072
3.008794707	89.9763
3.007049426	89.9041
3.005306169	89.7908
3.003564931	89.6677
3.00182571	89.5916
3.000088503	89.5007
2.998353304	89.2849
2.996620112	89.199
2.994888923	89.0672
2.993160628	88.9509
2.991433432	88.8045
2.989708228	88.7107
2.987985013	88.6609
2.986263784	88.5447
2.984544536	88.3845
2.982827267	88.2224
2.981111973	88.0242
2.97939865	87.9226
2.977687296	87.7976
2.975977906	87.5759
2.974270478	87.2771
2.972565009	87.0369
2.970861493	86.8718
2.96915993	86.6492
2.967460314	86.4021
2.965763522	86.1765
2.964067792	86.0408
2.962373999	85.907
2.960682141	85.7478
2.958992215	85.617
2.957304216	85.4256
2.955618142	85.3133
2.95393399	85.2156
2.952251756	85.0877
2.950571437	84.8982
2.94889303	84.8601
2.947216531	84.7849
2.945541937	84.6687
2.943869245	84.5017
2.942198452	84.407
2.940529554	84.3406
2.938862549	84.325
2.937197432	84.282
2.935534201	84.2781
2.933872853	84.242
2.932213384	84.1883
2.930555792	84.1101
2.928900072	84.0203
2.927246222	83.8885
2.925595095	83.8084
2.923944975	83.8172
2.922296715	83.7849
2.920650312	83.7361
2.919005763	83.7127
2.917363066	83.7146
2.915722216	83.7664
2.91408321	83.7469
2.912446047	83.7752
2.910810722	83.9002
2.909177232	83.949
2.907545575	83.9187
2.905915747	83.9929
2.904287745	84.1072
2.902661566	84.1873
2.901037208	84.1687
2.899414666	84.2547
2.897793938	84.2742
2.896175022	84.3709
2.894557913	84.6111
2.892942609	84.782
2.891329106	84.8845
2.889717403	84.9666
2.888107495	85.1599
2.886500214	85.2195
2.884893888	85.3826
2.883289349	85.5242
2.881686594	85.6609
2.880085619	85.7742
2.878486423	85.9177
2.876889001	86.075
2.875293352	86.2302
2.873699471	86.3318
2.872107357	86.4422
2.870517006	86.6013
2.868928415	86.7381
2.867341582	86.8445
2.865756502	87.0398
2.864173175	87.2088
2.862591596	87.3289
2.861011762	87.4802
2.859433672	87.6414
2.857857321	87.8093
2.856282708	87.9412
2.854709829	88.0349
2.853138681	88.1482
2.851569261	88.239
2.850001568	88.3162
2.848436408	88.4851
2.846872156	88.6287
2.845309621	88.7537
2.8437488	88.8181
2.842189691	88.8865
2.840632291	88.9705
2.839076596	89.0134
2.837522604	89.1336
2.835970313	89.2576
2.834419719	89.4138
2.83287082	89.5408
2.831323613	89.6648
2.829778094	89.781
2.828234263	89.9304
2.826692114	89.9568
2.825151647	89.9646
2.823612858	90.0974
2.822075744	90.2224
2.820540303	90.3367
2.819006531	90.447
2.817474427	90.575
2.815943987	90.7507
2.81441521	90.8797
2.812888091	91.0115
2.811363418	91.114
2.809839609	91.1531
2.80831745	91.2654
2.806796939	91.4392
2.805278075	91.5584
2.803760853	91.7107
2.802245271	91.9197
2.800731327	92.0984
2.799219018	92.2244
2.797708341	92.2673
2.796199294	92.4529
2.794691874	92.614
2.793186078	92.7937
2.791681905	92.8904
2.79017935	92.9031
2.788678412	92.9216
2.787179865	92.9148
2.785682151	92.7312
2.784186046	92.4617
2.782691547	92.113
2.781198652	91.6882
2.779707358	91.6755
2.778217662	92.2537
2.776729562	93.1209
2.775243056	94.0271
2.77375814	94.6404
2.772274812	95.0916
2.77079307	95.5789
2.769312911	95.9001
2.767834333	96.1287
2.766357333	96.3484
2.764881908	96.5085
2.763408056	96.6912
2.761935774	96.8093
2.760465061	96.9548
2.758995913	97.1101
2.757528328	97.2537
2.756062304	97.3249
2.754597837	97.4314
2.753134926	97.5632
2.751674325	97.7888
2.750214517	97.9685
2.748756257	98.0662
2.747299542	98.1921
2.74584437	98.2419
2.74439074	98.322
2.742938647	98.3835
2.741488091	98.4236
2.740039067	98.529
2.738591575	98.6335
2.737145611	98.6687
2.735701174	98.7859
2.73425826	98.9421
2.732816867	98.9841
2.731376994	99.1687
2.729938636	99.2898
2.728501793	99.4538
2.727066462	99.6247
2.72563264	99.8943
2.724200325	100.0857
2.722769514	100.2068
2.721340206	100.3513
2.719912397	100.4724
2.718486086	100.7117
2.717062008	100.7585
2.715638684	100.7458
2.714216851	100.7507
2.712796505	100.7312
2.711377646	100.6648
2.709960269	100.4744
2.708544374	100.0915
2.707129958	99.5437
2.705717018	98.8015
2.704305552	98.2078
2.702895558	97.9372
2.701487034	98.3982
2.700079976	99.3201
2.698674384	100.1326
2.697270255	100.7038
2.695867585	101.1247
2.694466374	101.3835
2.693066619	101.5349
2.691668318	101.7585
2.690271467	101.781
2.688876066	101.8591
2.687482111	101.864
2.686089602	101.9411
2.684698534	102.0632
2.683309626	102.1023
2.681921436	102.1326
2.680534681	102.1218
2.679149359	102.156
2.677765469	102.2927
2.676383008	102.3826
2.675001973	102.4109
2.673622363	102.3718
2.672244175	102.4255
2.670867407	102.5124
2.669492057	102.5749
2.668118123	102.5544
2.666745602	102.571
2.665374493	102.6296
2.664004793	102.6999
2.6626365	102.531
2.66127032	102.4304
2.659904834	102.4343
2.658540748	102.4411
2.657178061	102.4656
2.65581677	102.4929
2.654456873	102.6169
2.653098368	102.6257
2.651741253	102.6101
2.650385525	102.5896
2.649031183	102.6413
2.647678224	102.7077
2.646326647	102.7497
2.644976449	102.8357
2.643627628	102.8718
2.642280182	102.9333
2.640934109	102.9509
2.639589407	102.8865
2.638246073	102.824
2.636904106	102.7654
2.635563503	102.7654
2.634224263	102.74
2.632886383	102.8298
2.631549862	102.8122
2.630214697	102.8591
2.628881577	102.9392
2.627549117	102.9665
2.626218007	102.9118
2.624888245	102.9021
2.62355983	102.9958
2.622232758	103.0056
2.620907028	102.9939
2.619582638	102.9646
2.618259585	102.9294
2.616937869	102.9216
2.615617486	102.947
2.614298435	102.988
2.612980713	102.9978
2.61166432	103.0134
2.610349252	102.9529
2.609035507	102.9177
2.607723085	102.9919
2.606411982	102.9509
2.605102197	102.9099
2.603793727	102.9158
2.602486572	102.904
2.601180728	102.99
2.599876194	102.9529
2.598572968	102.9861
2.597271722	102.9763
2.595971105	102.9216
2.59467179	102.9939
2.593373774	103.1423
2.592077057	103.1228
2.590781636	103.2732
2.589487509	103.3279
2.588194675	103.324
2.58690313	103.2439
2.585612874	103.2673
2.584323905	103.2263
2.58303622	103.2732
2.581749817	103.3122
2.580464695	103.2771
2.579180852	103.24
2.577898286	103.2146
2.576616995	103.1833
2.575336976	103.0798
2.574058229	103.0915
2.572780751	103.1286
2.571504541	103.1677
2.570229596	103.1033
2.568955915	103.0271
2.567683495	103.07
2.566412994	103.0486
2.565143091	103.0818
2.563874445	103.1033
2.562607053	103.1872
2.561340913	103.2693
2.560076024	103.2595
2.558812384	103.2068
2.55754999	103.2517
2.556288841	103.2829
2.555028936	103.3337
2.553770272	103.3708
2.552512847	103.2595
2.55125666	103.2283
2.550001709	103.2283
2.548747991	103.2048
2.547495506	103.1892
2.546244252	103.1814
2.544994225	103.3083
2.543745426	103.4392
2.542497852	103.4548
2.5412515	103.4626
2.54000637	103.4802
2.53876246	103.4861
2.537519767	103.5564
2.536278934	103.4997
2.535038671	103.3865
2.53379962	103.3943
2.53256178	103.3279
2.531325149	103.2732
2.530089725	103.2673
2.528855506	103.2575
2.52762249	103.2556
2.526390677	103.2849
2.525160064	103.3943
2.523930648	103.3142
2.52270243	103.3533
2.521475406	103.2556
2.520249575	103.1638
2.519024936	103.2361
2.517801486	103.2986
2.516579857	103.3454
2.515358781	103.3747
2.514138889	103.488
2.512920179	103.4392
2.511702651	103.5583
2.510486301	103.7048
2.50927113	103.7907
2.508057134	103.6872
2.506844312	103.7361
2.505632662	103.7107
2.504422183	103.5857
2.503212874	103.6599
2.502004731	103.7263
2.500797754	103.7693
2.499591942	103.822
2.498387291	103.9138
2.497183801	103.8552
2.49598147	103.6579
2.494780296	103.6677
2.493580278	103.6111
2.492381413	103.6794
2.491183701	103.5798
2.489987139	103.6482
2.488791726	103.6638
2.48759808	103.6189
2.486404959	103.7263
2.485212983	103.6501
2.484022149	103.574
2.482832455	103.6365
2.4816439	103.7302
2.480456483	103.7575
2.479270202	103.8611
2.478085055	103.781
2.47690104	103.7302
2.475718156	103.8396
2.474536402	103.8786
2.473355775	103.738
2.472176274	103.6404
2.470997898	103.6423
2.469820644	103.824
2.468644512	103.7497
2.467469499	103.7575
2.466295604	103.7888
2.465122826	103.8689
2.463951163	103.7517
2.462780612	103.8083
2.461611174	103.7927
2.460442845	103.8552
2.45927623	103.9782
2.458110116	104.1032
2.456945108	103.9997
2.455781204	104.1111
2.454618401	104.0427
2.4534567	104.1091
2.452296097	104.0876
2.451136592	104.0583
2.449978183	104.0407
2.448820868	103.9763
2.447664646	104.0017
2.446509516	103.8982
2.445355475	103.9763
2.444202523	104.0095
2.443050657	103.9607
2.441899876	104.0075
2.440750179	103.9548
2.439601564	104.0779
2.43845403	104.2224
2.437307575	104.2575
2.436162197	104.2146
2.435017895	104.0642
2.433874668	104.0466
2.432732513	104.1013
2.431592022	104.0193
2.430452008	104.0544
2.429313063	103.8825
2.428175185	103.9138
2.427038372	104.0017
2.425902624	104.0622
2.424767938	104.07
2.423634312	103.9958
2.422501747	104.0154
2.421370239	104.0798
2.420239788	104.0622
2.419110392	104.0896
2.417982049	104.0427
2.416854758	104.0349
2.415728518	104.0232
2.414603328	104.0095
2.413479185	104.2497
2.412356088	104.3513
2.411234036	104.2263
2.410113027	104.2595
2.40899306	104.3454
2.407874134	104.2771
2.406756246	104.3454
2.405639396	104.2888
2.40452416	104.3044
2.40340938	104.2029
2.402295634	104.3279
2.401182919	104.4763
2.400071234	104.3513
2.398960578	104.2204
2.39785095	104.2068
2.396742348	104.2185
2.39563477	104.363
2.394528216	104.2029
2.393422683	104.2204
2.392318171	104.2595
2.391214677	104.3298
2.390112201	104.1423
2.389010742	104.1091
2.387910297	104.1833
2.386811435	104.1677
2.385713014	104.2048
2.384615605	104.2575
2.383519204	104.3435
2.382423811	104.3161
2.381329425	104.3747
2.380236043	104.3122
2.379143665	104.3279
2.37805229	104.4763
2.376961915	104.6892
2.375872539	104.5818
2.374784162	104.4001
2.373696781	104.3767
2.372610396	104.5271
2.371525004	104.447
2.370440606	104.4236
2.369357198	104.4294
2.368274781	104.4685
2.367193351	104.4997
2.366112909	104.5954
2.365033453	104.531
2.363954982	104.4919
2.362877493	104.4001
2.361800987	104.322
2.360726018	104.322
2.35965147	104.3454
2.3585779	104.4216
2.357505307	104.4626
2.356433688	104.5095
2.355363044	104.4216
2.354293372	104.4626
2.353224671	104.5075
2.35215694	104.4841
2.351090177	104.5095
2.350024382	104.656
2.348959552	104.5544
2.347895687	104.6892
2.346832785	104.7068
2.345770845	104.572
2.344709866	104.5075
2.343649846	104.4177
2.342590784	104.5349
2.341532678	104.5505
2.340475528	104.5622
2.339419333	104.6189
2.33836409	104.7204
2.337309798	104.695
2.336256457	104.7693
2.335204611	104.7751
2.334153166	104.7595
2.333102667	104.6872
2.332053114	104.8376
2.331004504	104.7536
2.329956838	104.7361
2.328910112	104.6814
2.327864326	104.6638
2.32681948	104.6892
2.325775571	104.6872
2.324732598	104.697
2.32369056	104.7185
2.322649456	104.7751
2.321609284	104.7907
2.320570043	104.7986
2.319531733	104.82
2.318494351	104.7282
2.317457897	104.7282
2.316422369	104.7888
2.315387766	104.7263
2.314354087	104.6794
2.31332133	104.781
2.312289495	104.8669
2.31125858	104.8279
2.310229117	104.7751
2.309200038	104.8532
2.308171875	104.822
2.307144627	104.9001
2.306118293	104.945
2.305092872	104.9138
2.304068363	104.8298
2.303044763	104.781
2.302022073	104.8435
2.301000291	104.8845
2.299979415	105.0075
2.298959445	104.9138
2.297940379	104.9099
2.296922216	104.8825
2.295904955	104.8454
2.294888595	105.0154
2.29387366	104.9939
2.292859097	105.0036
2.291845431	105.1814
2.29083266	105.3142
2.289820785	105.32
2.288809803	105.2907
2.287799713	105.1814
2.286790515	105.1032
2.285782206	105.156
2.284774786	105.0876
2.283768254	104.8845
2.282762608	104.8825
2.281757848	104.9001
2.280753972	104.8532
2.279750978	104.9157
2.278748867	104.7907
2.277747636	105.1501
2.276747284	105.1814
2.275747811	105.0466
2.274749215	105.0075
2.273751494	104.9919
2.272754649	104.9607
2.271758677	105.0017
2.270763578	104.9958
2.269769866	104.9177
2.268776508	105.1208
2.267784019	105.1755
2.266792398	105.1872
2.265801644	105.2419
2.264811756	105.0974
2.263822732	105.2107
2.262834571	105.3591
2.261847273	105.4294
2.260860836	105.3552
2.259875259	105.2732
2.258890541	105.2029
2.257906681	105.0935
2.256923678	105.1404
2.25594153	105.1794
2.254960236	105.3552
2.253979796	105.2732
2.253000208	105.2185
2.252021471	105.2419
2.251043584	105.406
2.250066546	105.2966
2.249090355	105.3318
2.248115012	105.2341
2.247140514	105.1286
2.246167365	105.2966
2.245194554	105.4255
2.244222586	105.3083
2.243251458	105.2849
2.242281171	105.2341
2.241311723	105.3943
2.240343113	105.3122
2.23937534	105.2263
2.238408402	105.2029
2.237442299	105.3044
2.23647703	105.2614
2.235512593	105.4568
2.234548988	105.5114
2.233586213	105.3435
2.232624267	105.3083
2.231663149	105.3786
2.230702859	105.4138
2.229743394	105.2575
2.228784755	105.238
2.22782694	105.4841
2.226869947	105.3396
2.225913777	105.2263
2.224958427	105.32
2.224003896	105.488
2.223050679	105.57
2.222097785	105.5388
2.221145707	105.6755
2.220194445	105.5193
2.219243997	105.6013
2.218294362	105.5075
2.21734554	105.3904
2.21639753	105.4177
2.215450329	105.6325
2.214503938	105.6169
2.213558355	105.4489
2.212613579	105.488
2.211669609	105.5036
2.210726445	105.3904
2.209784084	105.4333
2.208842527	105.5114
2.207901771	105.5622
2.206961817	105.6482
2.206022662	105.6521
2.205084307	105.8161
2.204146749	105.7302
2.203209989	105.5271
2.202274024	105.5935
2.201338854	105.863
2.200404963	105.8161
2.199471379	105.8474
2.198538587	105.8669
2.197606587	105.8161
2.196675376	105.7693
2.195744954	105.9177
2.194815319	105.8825
2.193886472	105.9724
2.192958411	105.8669
2.192031134	105.7888
2.191104641	105.8904
2.190178931	105.7849
2.189254003	105.8044
2.188329856	105.8591
2.187406488	105.8786
2.1864839	105.6638
2.185562567	105.6364
2.184641533	105.7068
2.183721275	106.0818
2.182801792	105.9294
2.181883083	105.8122
2.180965147	105.7263
2.180047983	105.7536
2.17913159	105.6091
2.178215967	105.6247
2.177301113	105.5349
2.176387028	105.6247
2.175473709	105.531
2.174561157	105.5896
2.17364937	105.695
2.172738348	105.7263
2.171828089	105.8786
2.170918592	105.6755
2.170009856	105.6091
2.169101881	105.8786
2.168194666	105.9177
2.167288209	105.9099
2.166382509	106.0193
2.165477567	105.9724
2.16457338	106.1247
2.163670416	106.3122
2.162767737	106.2068
2.161865811	106.3005
2.160964637	106.1169
2.160064214	105.988
2.159164542	105.8904
2.158265618	105.8747
2.157367442	105.9489
2.156470014	105.9333
2.155573332	105.9099
2.154677395	105.9724
2.153782203	106.0075
2.152887754	106.0622
2.151994048	106.156
2.151101084	106.0154
2.150208861	105.863
2.149317377	105.9216
2.148426632	106.0466
2.147536625	106.1013
2.146647355	106.195
2.145758822	106.1247
2.144871024	106.0193
2.14398396	105.9099
2.143097629	105.9997
2.14221249	106.1404
2.141327623	106.1599
2.140443487	106.2849
2.139560081	106.1872
2.138677403	106.0622
2.137795454	106.0779
2.136914232	106.2224
2.136033736	106.4724
2.135153965	106.281
2.134274919	106.2497
2.133396596	106.0661
2.132518995	106.1169
2.131642117	106.2575
2.130765959	106.1989
2.129890521	106.3122
2.129015803	106.4411
2.128141802	106.4919
2.127268519	106.8005
2.126395952	106.6716
2.125524101	106.5232
2.124652964	106.2849
2.123782542	106.3435
2.122912832	106.2185
2.122043834	106.1794
2.121175997	106.3474
2.12030842	106.4919
2.119441553	106.5544
2.118575394	106.5505
2.117709942	106.6482
2.116845198	106.781
2.115981159	106.7029
2.115117826	106.613
2.114255197	106.8005
2.113393271	106.4607
2.112532047	106.2732
2.111671525	106.3435
2.110811704	106.3669
2.109952583	106.3669
2.109094161	106.4607
2.108236437	106.6599
2.107379855	106.8591
2.106523524	106.863
2.105667889	106.6286
2.104812949	106.6325
2.103958703	106.5974
2.103105151	106.5075
2.10225229	106.5154
2.101400121	106.6599
2.100548642	106.6404
2.099697853	106.6599
2.098847754	106.4568
2.097998342	106.6091
2.097149617	106.4372
2.096301579	106.5036
2.095454226	106.5857
2.094607559	106.5232
2.093761575	106.3747
2.092916274	106.4685
2.092071655	106.6443
2.091227718	106.5036
2.090384461	106.6911
2.089541885	106.7536
2.088699987	106.6872
2.087858767	106.5818
2.08701866	106.7224
2.086178794	106.8005
2.085339604	106.906
2.084501088	106.8591
2.083663247	106.7185
2.082826078	106.82
2.081989583	106.8904
2.081153758	106.8044
2.080318605	106.6443
2.079484122	106.6794
