Name: Cerussite, PbCO3 
Type:  Mineral
Class:  Carbonates
Subclass:
Particle Size: Fine (Less than 2 Micrometers)
Sample No.:  cerussite.1
Owner:  JHU
Wavelength Range:  IR
Origin:  Sample from Australia; donated by Norma Vergo.  

Description: The sample was a light tan irregular mass and appeared 
to be a pure carbonate, both in hand specimen and under the 
microscope.



Measurement:  Transmission 
First Column:  X
Second Column:  Y  
X Units:  Wavelength (micrometers)
Y Units:  Transmittance (percent)
First X Value:  25.0442
Last X Value:  2.079
Number of X Values:  2287
Additional Information: ceruss1a.txt

25.04420302	99.1638
24.9237955	98.9568
24.80454022	98.8044
24.68642074	98.9724
24.5694209	98.7966
24.45358465	98.7185
24.3387763	98.6912
24.22504094	98.6326
24.11236361	98.7419
24.00072962	98.8396
23.89012454	98.8826
23.78053421	99.1052
23.67194472	98.8083
23.56434244	98.6208
23.45771395	98.5466
23.35204611	98.7341
23.24732598	98.6716
23.14354087	98.5798
23.04067832	98.5408
22.93872607	98.8767
22.83767211	98.8376
22.7375046	98.7849
22.63821194	98.8826
22.53978272	98.8611
22.44220571	98.9138
22.3454699	98.8474
22.24956446	98.7537
22.15447875	98.5642
22.06020229	98.4802
21.96677306	98.447
21.87408402	98.4236
21.7821739	98.4099
21.69103293	98.1951
21.60065148	97.8279
21.5110201	97.5779
21.42212949	97.3767
21.33397051	97.4216
21.24653416	97.1404
21.15981159	97.0466
21.0737941	96.9021
20.98847313	96.9373
20.90384024	96.8611
20.81988716	96.7595
20.73660571	96.6169
20.65398787	96.5505
20.57202575	96.2947
20.49071156	96.2263
20.41003766	96.0251
20.3299965	96.0203
20.25058069	95.864
20.1717829	95.946
20.09359597	95.9177
20.01601281	96.0281
19.93906621	95.8279
19.8626695	95.9412
19.78685599	95.7273
19.71161901	95.9138
19.63695203	95.8015
19.56284859	96.0134
19.48930232	95.7068
19.41630698	95.7664
19.34385639	95.5476
19.27194448	95.7849
19.20056526	95.5525
19.12971284	95.7703
19.05938141	95.489
18.98956523	95.6755
18.92025868	95.3728
18.85145618	95.5232
18.78315226	95.2283
18.71534153	95.3767
18.64801865	95.0896
18.58117838	95.2556
18.51481556	94.9822
18.44892507	95.1492
18.38350191	94.8962
18.31854111	95.0906
18.25407111	94.908
18.19002023	95.1892
18.12641726	95.0115
18.06325753	95.283
18.00053642	95.115
17.93824937	95.2898
17.8763919	95.115
17.81495958	95.239
17.75394803	95.0427
17.69335296	95.1248
17.63317011	95.0037
17.57339529	95.0193
17.51402436	94.8113
17.45505324	94.8533
17.39647791	94.7966
17.3382944	94.947
17.28049878	94.8962
17.2230872	94.988
17.16605584	94.9861
17.10940093	95.0232
17.05311876	95.0486
16.99720566	95.0681
16.94165801	95.0896
16.88647225	95.1814
16.83167317	95.241
16.77720046	95.3162
16.72307919	95.4099
16.66930597	95.4568
16.61587747	95.6345
16.56279037	95.7458
16.51004141	95.864
16.45762737	95.7927
16.40554507	95.9412
16.35379138	95.9607
16.30236319	96.0974
16.25125744	96.0583
16.20047111	96.2117
16.15000121	96.031
16.0998448	96.1462
16.04999896	95.9841
16.00048641	95.9822
15.95125297	95.7224
15.90232158	95.7771
15.85368947	95.532
15.80535391	95.5896
15.75731218	95.3347
15.70956162	95.3542
15.6620996	95.0496
15.61492349	95.0623
15.56803074	94.8347
15.52141878	94.8552
15.47508511	94.6189
15.42902725	94.5935
15.38324273	94.4041
15.33772913	94.3152
15.29248405	94.0916
15.24750513	93.9627
15.20279002	93.6072
15.1583364	93.2976
15.114142	92.822
15.07020455	92.2283
15.02652181	91.4314
14.98309158	90.4226
14.93991168	88.9041
14.89700213	86.6013
14.85431629	82.3538
14.81187438	74.2757
14.76967431	66.4412
14.72771402	66.7362
14.68599147	75.2791
14.64450465	86.9007
14.60325156	94.1912
14.56223023	96.7131
14.52143873	97.4045
14.48087511	97.4451
14.44053748	97.2815
14.40042395	97.1042
14.36053266	96.9021
14.32086177	96.5374
14.28140946	96.4983
14.24217393	96.5837
14.20315338	96.5466
14.16434607	96.3826
14.12575025	96.2732
14.0873642	96.1716
14.0491862	96.0232
14.01121458	95.8455
13.97344765	95.6682
13.93590321	95.5408
13.89854065	95.342
13.8613779	95.2029
13.82441336	95.1409
13.78764544	95.0896
13.75107258	95.0642
13.71469324	95.0042
13.67850587	94.9871
13.64250897	94.9099
13.60670103	94.8748
13.57108057	94.863
13.53564612	94.8542
13.50039624	94.8513
13.46532947	94.8669
13.4304444	94.8772
13.39573962	94.8962
13.36121373	94.8513
13.32686536	94.7966
13.29269314	94.7209
13.25869572	94.7112
13.22487175	94.6428
13.19121992	94.6174
13.15773892	94.5134
13.12442745	94.467
13.09130135	94.364
13.05832501	94.3064
13.02551438	94.2205
12.99286821	94.2146
12.96038529	94.0369
12.92806437	93.9978
12.89590426	93.9275
12.86390376	93.9065
12.83206168	93.7732
12.80037684	93.7361
12.7688481	93.6345
12.73747429	93.6013
12.70625427	93.5217
12.67518693	93.488
12.64427113	93.4631
12.61350579	93.4451
12.58290562	93.3943
12.55243781	93.3694
12.52211719	93.3127
12.4919427	93.2478
12.46191328	93.2195
12.43202789	93.1189
12.40228549	93.0276
12.37268507	92.8689
12.34322561	92.842
12.31390609	92.6599
12.28472554	92.5554
12.25568296	92.283
12.22677738	92.0232
12.19800782	91.5535
12.16937334	90.8777
12.14087298	90.1409
12.1125058	90.301
12.08427087	90.0452
12.05616727	89.1311
12.02819409	87.4705
12.00035041	84.8577
11.97263534	80.4143
11.945048	74.6482
11.9175875	71.2894
11.8902671	74.6312
11.86305761	81.4744
11.83597236	86.7019
11.80901051	89.4236
11.78217122	90.9275
11.75545365	91.7986
11.72885698	92.3552
11.70238038	92.7224
11.67602305	92.9705
11.64978419	93.1082
11.62366299	93.2214
11.59765866	93.3181
11.57177043	93.324
11.54599752	93.3357
11.52033916	93.2361
11.49479458	93.1589
11.46936304	93.0818
11.44404378	93.0779
11.41883606	92.9968
11.39373914	92.9353
11.3687523	92.803
11.34387482	92.7249
11.31910597	92.5681
11.29444505	92.4705
11.26990406	92.3396
11.24545684	92.2776
11.22111545	92.1541
11.19687921	92.1336
11.17274743	92.0335
11.14871946	91.9783
11.12479461	91.8772
11.10097222	91.8103
11.07725165	91.697
11.05363222	91.5925
11.03011331	91.4695
11.00669427	91.3435
10.98337447	91.2503
10.96015327	91.1194
10.93703005	91.0632
10.9140042	90.9607
10.89107509	90.8987
10.86824213	90.7879
10.8455047	90.7185
10.82286221	90.6487
10.80031407	90.6448
10.77785969	90.5574
10.75549848	90.5281
10.73322986	90.4685
10.71106474	90.4617
10.68897956	90.4265
10.66698525	90.4539
10.64508128	90.3972
10.62326708	90.4055
10.6015421	90.3699
10.5799058	90.3792
10.55835763	90.3421
10.53689705	90.3318
10.51552354	90.2913
10.49423657	90.2576
10.4730356	90.2009
10.45192012	90.1482
10.43088962	90.0398
10.40994358	89.8943
10.38908149	89.7883
10.36830285	89.6526
10.34760717	89.5398
10.32699394	89.3635
10.30646267	89.2068
10.28601287	89.053
10.26564407	88.9378
10.24535578	88.7556
10.22514752	88.6008
10.20502924	88.426
10.1849796	88.2498
10.16500858	88.0315
10.14511574	87.8489
10.12530059	87.7224
10.10556271	87.6297
10.08590162	87.5496
10.0663169	87.4802
10.04680808	87.4007
10.02737473	87.3572
10.00801642	87.3401
9.98873271	87.3015
9.969523168	87.2639
9.950387369	87.157
9.931324888	87.1409
9.912335307	87.0305
9.893427994	86.9422
9.874582922	86.8015
9.855809507	86.7464
9.83710734	86.6101
9.818476015	86.552
9.799915133	86.4119
9.781424293	86.346
9.7630031	86.2425
9.744651161	86.1468
9.726368087	85.9573
9.70815349	85.8045
9.690006986	85.6316
9.671928196	85.5379
9.653916739	85.3616
9.635972241	85.2278
9.618094328	85.0237
9.600282632	84.8416
9.582536785	84.4929
9.564856422	83.991
9.547241181	82.9388
9.529690704	79.8694
9.512204634	76.1165
9.494782617	79.0838
9.477424301	84.4261
9.460138288	86.0071
9.4429063	86.2449
9.425736975	86.2249
9.408629972	86.221
9.391584952	86.1062
9.374601579	86.0828
9.35767952	85.9949
9.340818443	85.9749
9.324018018	85.8518
9.307277919	85.8162
9.290597822	85.7312
9.273977405	85.6931
9.257416348	85.638
9.240914333	85.6272
9.224471046	85.5535
9.208086173	85.4632
9.191759404	85.3714
9.17549043	85.3152
9.159278945	85.197
9.143124645	85.0701
9.127027227	84.9676
9.110986392	84.8987
9.095001842	84.826
9.079073281	84.7469
9.06320863	84.6697
9.04739114	84.6092
9.031628764	84.6673
9.015921215	84.7464
9.000268208	84.823
8.984669459	84.9402
8.969124685	85.0183
8.953633608	85.1038
8.93819595	85.094
8.922811435	85.0701
8.907479789	85.0574
8.89220074	85.0164
8.876974017	84.9793
8.861799353	84.9646
8.846676481	84.907
8.831605135	84.8826
8.816585054	84.8865
8.801615977	84.8557
8.786697643	84.8274
8.771829795	84.7996
8.757012178	84.7776
8.742244536	84.7459
8.727526619	84.7268
8.712858175	84.6941
8.69824652	84.6302
8.683676252	84.5799
8.669154714	84.5313
8.654681663	84.4763
8.640256858	84.4463
8.625880055	84.4131
8.611551018	84.3797
8.597269507	84.3408
8.583035287	84.281
8.568848124	84.1971
8.554707784	84.1131
8.540614036	84.0157
8.52656665	83.9236
8.512565398	83.8269
8.498610052	83.7566
8.484700388	83.657
8.470836182	83.5799
8.45701721	83.4646
8.443243252	83.3838
8.429514089	83.283
8.415829502	83.198
8.402189274	83.1094
8.388593191	82.9925
8.375041038	82.8828
8.361539594	82.7781
8.348074642	82.6931
8.334652987	82.5801
8.32127442	82.4705
8.307938734	82.3379
8.294645723	82.2469
8.281395183	82.1075
8.268186911	81.9883
8.255020704	81.8399
8.241896361	81.7337
8.228813685	81.6033
8.215772476	81.5364
8.202772537	81.378
8.189813674	81.2625
8.176895691	81.1006
8.164018395	80.9678
8.151188239	80.7852
8.138391724	80.6394
8.125635323	80.4534
8.11291885	80.2918
8.100242116	80.0916
8.087604937	79.9043
8.075007126	79.6951
8.062448501	79.514
8.049928879	79.3265
8.037448078	79.1268
8.025005918	78.9109
8.012602221	78.6907
8.000236807	78.4705
7.9879095	78.241
7.975620124	78.0247
7.963368505	77.7635
7.951154468	77.5342
7.938977841	77.2481
7.926838452	77.0193
7.914736131	76.7308
7.902670708	76.4773
7.890642014	76.1797
7.878649883	75.9056
7.866694148	75.5965
7.854780812	75.3265
7.842897355	74.9852
7.831049799	74.699
7.819237984	74.3445
7.807461747	74.0411
7.795720929	73.6876
7.784015369	73.3631
7.772344909	72.9915
7.760709391	72.6348
7.749108659	72.283
7.737542556	71.9354
7.726010929	71.5823
7.714513623	71.2283
7.703050485	70.8939
7.691621363	70.5472
7.680226106	70.252
7.668864563	69.9373
7.657536586	69.6707
7.646242025	69.368
7.634980733	69.1102
7.623752563	68.8172
7.61255737	68.5613
7.601395008	68.251
7.590265333	67.9805
7.579173946	67.6258
7.568109199	67.3292
7.557076711	66.9481
7.546076342	66.5931
7.535107952	66.1651
7.524171401	65.7366
7.51326655	65.2608
7.502393263	64.8026
7.491551403	64.3009
7.480740833	63.8302
7.469961418	63.3294
7.459213023	62.8204
7.448495516	62.2706
7.437808762	61.6844
7.42715263	61.0477
7.416526989	60.3651
7.405931707	59.6837
7.395366655	58.9386
7.384831703	58.17
7.374326724	57.3558
7.363851589	56.5086
7.353406171	55.5936
7.342990345	54.6866
7.332603984	53.6886
7.322252325	52.6827
7.311924506	51.6214
7.30162578	50.5673
7.291356025	49.4252
7.281115117	48.2665
7.270902937	47.0314
7.260719363	45.7589
7.250564275	44.4161
7.240437554	43.058
7.230339081	41.6884
7.220268738	40.3761
7.210226408	39.202
7.200211974	38.2226
7.19022532	37.4892
7.18026633	37.0343
7.17033489	36.9093
7.160436013	37.08
7.150559317	37.537
7.140709829	38.2423
7.130887439	39.1281
7.121092034	40.119
7.111323503	41.1749
7.101581735	42.2306
7.091866622	43.2328
7.082178053	44.1527
7.07251592	44.9442
7.062880115	45.5597
7.053270531	46.0013
7.04368706	46.2618
7.034129597	46.3888
7.024598035	46.3827
7.01509227	46.287
7.005612196	46.1766
6.99615771	46.1
6.986728709	46.0975
6.977325089	46.2181
6.967946748	46.4835
6.958593585	46.9074
6.949265497	47.4833
6.939962385	48.1747
6.930688952	48.9542
6.921435478	49.8138
6.912206681	50.7328
6.903002461	51.6808
6.893822721	52.6669
6.884667364	53.6632
6.875536292	54.6791
6.866429409	55.6583
6.857346618	56.6986
6.848287825	57.7198
6.839252935	58.766
6.830241852	59.7806
6.821254483	60.8372
6.812290735	61.8587
6.803350514	62.9034
6.794433728	63.9552
6.785540285	65.0196
6.776670093	66.0867
6.767823062	67.1815
6.7589991	68.2586
6.750198118	69.3519
6.741420026	70.4256
6.732664735	71.4864
6.723932156	72.5352
6.715226709	73.5586
6.706539278	74.5486
6.697874296	75.502
6.689231675	76.4134
6.680611329	77.2774
6.672013173	78.1121
6.663437121	78.9324
6.654883087	79.6875
6.646350987	80.3894
6.637840737	81.0833
6.629352253	81.7598
6.620885451	82.4139
6.612440248	83.0218
6.604016563	83.6006
6.595614312	84.1424
6.587233415	84.6707
6.578873789	85.1416
6.570535354	85.6248
6.56221803	86.0801
6.553921736	86.5508
6.545646392	86.9805
6.537391921	87.406
6.529158241	87.7971
6.520945276	88.2127
6.512757189	88.6028
6.504585407	88.9951
6.496434107	89.343
6.488303211	89.7151
6.480192643	90.0457
6.472102327	90.4099
6.464032186	90.7207
6.455982145	91.0703
6.44795213	91.3596
6.439942066	91.6629
6.431951879	91.9456
6.423981494	92.2266
6.416030838	92.4924
6.408099838	92.7576
6.400188422	93.0408
6.392296516	93.3142
6.384424048	93.585
6.376570948	93.8416
6.368737143	94.126
6.360922563	94.3982
6.353127136	94.6824
6.345350793	94.957
6.337593464	95.2656
6.329855078	95.5635
6.322139564	95.9343
6.314438848	96.3008
6.30675687	96.7559
6.29909356	97.2698
6.291448851	97.9451
6.283822676	98.7292
6.276214965	99.7517
6.268625654	100.8088
6.261054675	101.8279
6.253501961	102.4875
6.245967447	102.6396
6.238451067	102.1159
6.230952756	101.1946
6.223472449	100.0842
6.21601008	99.1179
6.208565585	98.28
6.201142747	97.6716
6.1937338	97.1794
6.186342535	96.7957
6.178968891	96.5085
6.171612803	96.2803
6.164274209	96.1084
6.156953047	95.9363
6.149649255	95.8245
6.14236277	95.7385
6.135093533	95.7351
6.12784148	95.7383
6.120606552	95.8096
6.113388688	95.8254
6.106187828	95.8958
6.099003911	95.9111
6.091836878	96.0203
6.084686669	96.0535
6.077553226	96.1619
6.070436489	96.2048
6.063336399	96.3093
6.056252899	96.3467
6.049185931	96.4509
6.042135436	96.4973
6.035101357	96.5703
6.02808727	96.6165
6.021085843	96.7217
6.01410066	96.8186
6.007131667	96.9377
6.000178805	97.0166
5.99324202	97.0859
5.986321256	97.1328
5.979416457	97.178
5.972527568	97.2148
5.965654534	97.2366
5.9587973	97.2432
5.951955813	97.2041
5.945130017	97.2002
5.938319859	97.1279
5.931525286	97.137
5.924746243	97.0867
5.917982678	97.0862
5.911234538	97
5.904501769	96.9509
5.89778432	96.8477
5.891082139	96.8171
5.884395172	96.7351
5.87772337	96.6951
5.871066679	96.6267
5.864428488	96.5937
5.85780186	96.4949
5.851190191	96.4072
5.84459343	96.2874
5.838011527	96.1931
5.831444431	96.0183
5.824892094	95.781
5.818354465	95.4265
5.811831494	94.842
5.805323133	93.8884
5.798829332	92.6619
5.792350043	91.7549
5.785885217	91.5752
5.779434806	92.0652
5.772998761	93.0139
5.766577035	93.9316
5.760169579	94.1599
5.753776347	94.0195
5.747397291	93.9583
5.741032364	94.3584
5.734681519	95.1045
5.728344709	95.8337
5.722021888	96.2773
5.715713009	96.5508
5.709421287	96.5684
5.703140149	96.543
5.696872816	96.4573
5.690619242	96.3977
5.684379382	96.3005
5.678153192	96.2292
5.671940626	96.1611
5.66574164	96.0901
5.659556189	96.0176
5.653384229	95.9441
5.647225716	95.8721
5.641080605	95.8166
5.634948854	95.7637
5.628830419	95.7141
5.622725256	95.668
5.616633323	95.6169
5.610557723	95.5579
5.604492113	95.5061
5.598439603	95.4592
5.592400152	95.3982
5.586373717	95.3523
5.580360257	95.2822
5.574359729	95.2607
5.568372092	95.1953
5.562397304	95.1475
5.556435324	95.0674
5.550486112	95.0088
5.544549625	94.9299
5.538625823	94.8772
5.532714665	94.7888
5.526816112	94.7527
5.520930122	94.6912
5.515056656	94.6563
5.509195674	94.574
5.503347136	94.5293
5.497511002	94.4717
5.491687233	94.4248
5.48587579	94.364
5.480076633	94.3123
5.474289725	94.2588
5.468518015	94.2217
5.462755479	94.178
5.457005076	94.1311
5.451266765	94.0674
5.445540511	94.0107
5.439826274	93.967
5.434124016	93.9102
5.428433701	93.8543
5.422755291	93.7949
5.417088748	93.7656
5.411434035	93.7139
5.405791116	93.677
5.400159953	93.6316
5.394540509	93.6003
5.388932749	93.5325
5.383336635	93.4944
5.377752132	93.4297
5.372179203	93.3906
5.366617813	93.3377
5.361067925	93.3127
5.355529504	93.251
5.350002515	93.2102
5.344486921	93.1455
5.338982689	93.1067
5.333492627	93.0642
5.328011006	93.0166
5.32254064	92.9717
5.317081497	92.9363
5.31163354	92.8936
5.306196736	92.8528
5.30077105	92.7981
5.295356449	92.7549
5.289952898	92.7239
5.284560364	92.6707
5.279178813	92.6221
5.273808212	92.5769
5.268448526	92.5469
5.263099724	92.4915
5.257761771	92.4629
5.252434635	92.4246
5.247118283	92.3975
5.241812682	92.3342
5.236517799	92.3084
5.231233603	92.241
5.225960061	92.2175
5.220697141	92.1533
5.21544481	92.116
5.210203036	92.0632
5.204974498	92.0501
5.19975374	91.9939
5.194543444	91.9631
5.189343579	91.9065
5.184154115	91.8877
5.178975019	91.8572
5.173806261	91.8203
5.168647809	91.7578
5.163499634	91.7383
5.158361704	91.6878
5.153233989	91.6521
5.148116459	91.6101
5.143009082	91.5791
5.137911829	91.5313
5.13282467	91.49
5.127747575	91.4336
5.122680514	91.3914
5.117623458	91.3533
5.112576376	91.3191
5.107539239	91.281
5.102512018	91.2295
5.097494683	91.2063
5.092487206	91.1629
5.087489558	91.1404
5.082504292	91.075
5.077526209	91.0664
5.072557868	91.0339
5.06759924	91.0027
5.062650297	90.9404
5.057711011	90.9246
5.052781354	90.8689
5.047861297	90.8311
5.042950812	90.7793
5.038049872	90.7539
5.033158448	90.7295
5.028276513	90.6924
5.023404039	90.6494
5.018541	90.6035
5.013687367	90.5899
5.008843113	90.5481
5.004010715	90.5134
4.999185133	90.4805
4.994368849	90.4483
4.989561837	90.3953
4.984764069	90.3848
4.979975518	90.3233
4.97519616	90.3008
4.970425966	90.252
4.96566491	90.2263
4.960912967	90.1785
4.95617011	90.1611
4.951436313	90.1111
4.94671155	90.0928
4.941995795	90.0274
4.937289023	89.9981
4.932591209	89.9588
4.927902325	89.9395
4.923222347	89.8923
4.918551251	89.8672
4.913889009	89.8152
4.909235598	89.7859
4.904590991	89.7481
4.899955165	89.71
4.895328095	89.6787
4.890712146	89.6619
4.886102507	89.6326
4.88150155	89.5918
4.876909249	89.584
4.87232558	89.5498
4.86775052	89.5379
4.863184043	89.5029
4.858626126	89.4744
4.854076745	89.449
4.849535875	89.4246
4.845003493	89.3826
4.840479575	89.3718
4.835964098	89.3369
4.831457037	89.2959
4.826958369	89.2793
4.822468072	89.2637
4.81798612	89.2468
4.813512492	89.2324
4.809047164	89.1912
4.804590113	89.1572
4.800141316	89.1192
4.79570075	89.0986
4.791268392	89.0696
4.78684422	89.0437
4.782430498	89.0205
4.778022625	88.9773
4.773622869	88.9568
4.769231209	88.9451
4.764847623	88.9033
4.760472086	88.8904
4.756104579	88.8631
4.751745078	88.8145
4.747393562	88.7891
4.743050009	88.7686
4.738714396	88.7227
4.734386703	88.6775
4.730066907	88.6756
4.725754987	88.6463
4.721450921	88.6309
4.717154688	88.5974
4.712866266	88.5811
4.708585635	88.542
4.704312773	88.5379
4.700047658	88.5098
4.695790271	88.4964
4.691540589	88.4588
4.687298593	88.4297
4.68306426	88.3943
4.67883976	88.3721
4.67462069	88.3438
4.670409221	88.3145
4.666205334	88.284
4.662009009	88.2569
4.657820224	88.2244
4.65363896	88.1953
4.649465195	88.1856
4.645298911	88.1746
4.641140087	88.159
4.636988702	88.126
4.632844738	88.1121
4.628708174	88.0803
4.62457899	88.0723
4.620457167	88.0466
4.616342684	88.0291
4.612235523	88.0108
4.608135664	88.0039
4.604043086	87.9754
4.599957772	87.9619
4.595879702	87.948
4.591808856	87.9402
4.587745215	87.9148
4.58368876	87.8965
4.57964157	87.866
4.575599426	87.8425
4.571564412	87.8184
4.567536508	87.7883
4.563515696	87.7793
4.559501956	87.7803
4.555495271	87.7429
4.551495621	87.6924
4.547502989	87.6756
4.543517355	87.6416
4.539538701	87.5935
4.535567009	87.5574
4.531602261	87.5352
4.527644439	87.5156
4.523693523	87.4861
4.519749497	87.459
4.515814382	87.4207
4.511884077	87.3838
4.507960608	87.3631
4.504043956	87.3135
4.500134104	87.2722
4.496231034	87.2263
4.492334729	87.21
4.488445171	87.1836
4.484562343	87.1677
4.480686226	87.1355
4.476816804	87.1135
4.47295406	87.0681
4.469097975	87.0364
4.465248534	86.9973
4.461405718	86.971
4.45756951	86.9495
4.453739894	86.9153
4.449916853	86.865
4.44610037	86.8513
4.442290427	86.8313
4.438487009	86.8045
4.434690097	86.7586
4.430899676	86.7239
4.42711573	86.7019
4.423340197	86.6634
4.419569145	86.6316
4.415804518	86.617
4.412046298	86.5755
4.408294471	86.555
4.404549018	86.531
4.400809925	86.4837
4.397077175	86.4519
4.393350752	86.428
4.389630639	86.4065
4.385916821	86.3596
4.382209282	86.3518
4.378508006	86.3098
4.374812977	86.2825
4.371124179	86.2371
4.367441596	86.2249
4.363765214	86.1897
4.360095015	86.1731
4.356430985	86.1199
4.352773108	86.1043
4.349121369	86.072
4.345475751	86.0257
4.341836241	86.0056
4.338202821	85.9798
4.334577357	85.951
4.330956072	85.9265
4.327340832	85.9031
4.323731623	85.8777
4.320128429	85.8279
4.316531235	85.7898
4.312940028	85.7605
4.30935479	85.7215
4.305775509	85.6819
4.302202168	85.636
4.298634754	85.5916
4.29507325	85.5315
4.291517644	85.4822
4.287967919	85.4178
4.284424062	85.3645
4.280886058	85.3313
4.277353892	85.2879
4.27382755	85.2386
4.270307018	85.1961
4.266792281	85.1741
4.263283325	85.1868
4.259780136	85.1917
4.256282699	85.1883
4.252791	85.1585
4.249306832	85.1321
4.245826565	85.0764
4.242351994	85.0222
4.238883105	84.9837
4.235419885	84.9368
4.231962319	84.8914
4.228510393	84.8611
4.225064094	84.8387
4.221623408	84.8079
4.218188322	84.7991
4.214758821	84.7708
4.211334892	84.7478
4.207916522	84.6936
4.204503696	84.6624
4.201096402	84.5989
4.197694626	84.5476
4.194300114	84.4837
4.190909331	84.4212
4.187524026	84.3377
4.184144186	84.2537
4.180769797	84.1355
4.177400846	84.0447
4.174037321	83.9256
4.170679208	83.8206
4.167326493	83.7019
4.163979165	83.6394
4.16063721	83.5896
4.157300615	83.5721
4.153969367	83.5901
4.150643454	83.6336
4.147322862	83.7083
4.144007579	83.8289
4.140697592	83.9729
4.137392888	84.1184
4.134093455	84.261
4.130799281	84.3592
4.127510352	84.4495
4.124226656	84.5125
4.120948181	84.5706
4.117674914	84.5965
4.114408535	84.6302
4.111145645	84.6609
4.107887925	84.6853
4.104635365	84.6717
4.101387951	84.6624
4.098145671	84.6433
4.094908514	84.6512
4.091676466	84.6355
4.088449517	84.6194
4.085227653	84.5818
4.082010864	84.576
4.078799136	84.5379
4.075592459	84.5203
4.072390819	84.4915
4.069194206	84.4602
4.066002607	84.4265
4.062816011	84.4095
4.059634406	84.387
4.056457779	84.3675
4.053286121	84.3616
4.050119418	84.3406
4.046957659	84.3225
4.043800833	84.3035
4.040648928	84.2732
4.037503563	84.2781
4.034361463	84.2581
4.031224251	84.2405
4.028091913	84.2259
4.024964439	84.2137
4.021841819	84.2068
4.018724039	84.1853
4.01561109	84.1692
4.012502959	84.1448
4.009399637	84.1101
4.00630111	84.1038
4.00320737	84.0906
4.000118404	84.0667
3.997034201	84.0598
3.99395475	84.0471
3.990880041	84.033
3.987810062	84.0056
3.984744803	83.9851
3.981684252	83.9549
3.9786284	83.9632
3.975577234	83.9573
3.972530744	83.9466
3.96948892	83.9168
3.966451751	83.9178
3.963420797	83.8811
3.960392903	83.8753
3.957369631	83.8645
3.954350972	83.8582
3.951336915	83.8367
3.948327449	83.8245
3.945322564	83.8191
3.942322249	83.8128
3.939326493	83.8084
3.936335288	83.7781
3.933348621	83.7732
3.930366483	83.7566
3.927388864	83.7469
3.924415753	83.7532
3.921447139	83.7151
3.918483014	83.6902
3.915523366	83.6736
3.912568186	83.6404
3.909617463	83.6175
3.906671188	83.597
3.90372935	83.5916
3.900791939	83.5745
3.897858945	83.5555
3.894930359	83.5432
3.892007684	83.513
3.889087881	83.4866
3.886172454	83.4617
3.883261396	83.4378
3.880354695	83.4109
3.877452343	83.3889
3.874554329	83.3572
3.871660644	83.3474
3.868771278	83.3186
3.865886222	83.3089
3.863005465	83.2932
3.860128998	83.2713
3.857256812	83.2405
3.854388896	83.2195
3.851525243	83.1946
3.848665841	83.178
3.845812161	83.1394
3.842961232	83.1199
3.840114528	83.0974
3.837272037	83.0838
3.834433752	83.0467
3.831599662	83.0266
3.828769759	82.9925
3.825944033	82.9949
3.823122474	82.9676
3.820305074	82.9461
3.817491824	82.8894
3.814682714	82.8963
3.811877735	82.8694
3.809076878	82.845
3.806280134	82.8142
3.803487494	82.7889
3.800698949	82.7635
3.797914489	82.7639
3.795134107	82.7498
3.792357792	82.7132
3.789585537	82.6697
3.786817332	82.678
3.784053167	82.6385
3.781293036	82.6062
3.778538356	82.5887
3.77578626	82.5681
3.773038171	82.5496
3.770294079	82.5354
3.767553976	82.5144
3.764817852	82.4783
3.7620857	82.4681
3.759357511	82.451
3.756633275	82.4124
3.753912985	82.3889
3.751196632	82.367
3.748484207	82.3377
3.745775701	82.3245
3.743071107	82.2893
3.740370416	82.2874
3.73767362	82.2517
3.734980709	82.2449
3.732291676	82.2171
3.729606512	82.2068
3.726925208	82.1824
3.724247758	82.157
3.721574151	82.1248
3.718904381	82.0974
3.716238438	82.0818
3.713577694	82.0613
3.71091938	82.0369
3.708264869	82.0056
3.705614154	81.9661
3.702967225	81.9314
3.700324074	81.9163
3.697684695	81.8777
3.695049078	81.8391
3.692417215	81.8069
3.689789099	81.7952
3.687164722	81.7586
3.684544075	81.7498
3.68192715	81.7132
3.67931394	81.6824
3.676704437	81.6404
3.674098633	81.614
3.67149652	81.5838
3.66889809	81.5545
3.666303336	81.5408
3.663712249	81.5159
3.661124822	81.4983
3.658541047	81.4729
3.655960916	81.4495
3.653384422	81.4417
3.65081289	81.4353
3.648243644	81.4158
3.645678012	81.4261
3.643115986	81.4275
3.640557559	81.43
3.638002722	81.4182
3.635451469	81.4241
3.632903791	81.407
3.630359682	81.3953
3.627819133	81.385
3.625282138	81.3865
3.622748688	81.3616
3.620218777	81.3533
3.617692397	81.3225
3.615169541	81.2928
3.6126502	81.2596
3.610135673	81.2488
3.607623341	81.2371
3.605114504	81.2093
3.602609154	81.2058
3.600107283	81.2068
3.597608885	81.2015
3.595113953	81.198
3.592622478	81.1643
3.590134454	81.1687
3.587649874	81.135
3.585168731	81.1331
3.582691017	81.1307
3.580216725	81.1189
3.577745848	81.1062
3.57527838	81.0882
3.572814313	81.0779
3.57035364	81.0667
3.567896354	81.0467
3.565442448	81.0413
3.562991916	81.0237
3.560544749	81.0242
3.558100942	81.0203
3.555660487	80.9822
3.553223378	80.9749
3.550790868	80.948
3.548360427	80.9534
3.545933311	80.93
3.543509513	80.9353
3.541089027	80.8973
3.538671844	80.8582
3.53625796	80.844
3.533847367	80.8343
3.531440058	80.825
3.529036026	80.7957
3.526635266	80.7854
3.524237769	80.764
3.52184353	80.7322
3.519452542	80.7039
3.517064798	80.6433
3.514680292	80.5896
3.512299017	80.5516
3.509920967	80.4803
3.507546135	80.4324
3.505174514	80.3807
3.502806098	80.3748
3.500440881	80.3811
3.498078855	80.3855
3.495720015	80.4041
3.493365575	80.4295
3.491013085	80.4236
3.488663762	80.4373
3.486317598	80.4432
3.483974588	80.4339
3.481634725	80.4148
3.479298003	80.4109
3.476964415	80.3933
3.474633956	80.3787
3.472306619	80.3601
3.469982397	80.3445
3.467661284	80.3103
3.465343275	80.2913
3.463028363	80.2542
3.460716541	80.2156
3.458407804	80.1912
3.456102146	80.1414
3.453799559	80.1228
3.451500039	80.0896
3.449203579	80.0389
3.446910172	80.0198
3.444619814	79.9705
3.442332497	79.9559
3.440048216	79.9026
3.437768146	79.8846
3.435489916	79.8191
3.433214704	79.7605
3.430942504	79.6975
3.428673309	79.6429
3.426407114	79.5682
3.424143913	79.4705
3.421883699	79.4046
3.419626467	79.3577
3.417372212	79.3406
3.415120926	79.344
3.412872605	79.344
3.410627242	79.3719
3.408384831	79.4119
3.406145367	79.4456
3.403908845	79.4886
3.401675257	79.5096
3.399444599	79.5491
3.397216864	79.5555
3.394992047	79.5642
3.392770143	79.576
3.390551144	79.5535
3.388335047	79.5359
3.386121844	79.5061
3.383912676	79.4983
3.381705245	79.4788
3.379500692	79.4705
3.377299012	79.4353
3.375100198	79.4378
3.372904246	79.4441
3.370711149	79.4344
3.368520903	79.4241
3.366333501	79.4319
3.364148938	79.4241
3.361967208	79.4226
3.359788306	79.3943
3.357612227	79.3904
3.355438965	79.3831
3.353268515	79.3831
3.35110087	79.3709
3.348937148	79.3714
3.346775098	79.3772
3.344615837	79.3416
3.342459362	79.3265
3.340305665	79.323
3.338154741	79.3128
3.336006587	79.3006
3.333861195	79.285
3.33171856	79.262
3.329578678	79.2366
3.327441544	79.2537
3.32530715	79.2185
3.323175494	79.2215
3.321046568	79.1936
3.318920368	79.1863
3.31679689	79.1463
3.314676126	79.1248
3.312558073	79.094
3.310442725	79.076
3.308330077	79.053
3.306220124	79.0437
3.304112861	79.0335
3.302008281	79.0374
3.299906382	78.9886
3.297808244	78.9627
3.295711686	78.9515
3.293617792	78.928
3.291526557	78.9085
3.289437976	78.8885
3.287352045	78.8655
3.285268756	78.8426
3.283188107	78.8162
3.281110091	78.7967
3.279034705	78.7757
3.276961942	78.7561
3.274891798	78.7132
3.272824267	78.7229
3.270759346	78.6976
3.268697029	78.6727
3.26663731	78.6228
3.264580186	78.6141
3.262525652	78.5799
3.260473701	78.574
3.25842433	78.5374
3.256377534	78.531
3.254333308	78.5057
3.252291646	78.4744
3.250252545	78.4358
3.248217054	78.409
3.246183057	78.4305
3.244151606	78.4139
3.242122696	78.4148
3.240096322	78.3694
3.238072479	78.3416
3.236051163	78.3577
3.234032369	78.3074
3.232016093	78.303
3.230002329	78.284
3.227991073	78.2478
3.22598232	78.2601
3.223976065	78.221
3.221972305	78.1819
3.219971033	78.1814
3.217972246	78.1585
3.215975939	78.1189
3.213982108	78.0916
3.211990747	78.117
3.210001852	78.0823
3.208015419	78.0726
3.206031443	78.0643
3.204049919	78.0257
3.202070843	78.033
3.200095235	78.0003
3.19812104	77.9886
3.196149279	77.9666
3.194179949	77.9666
3.192213043	77.9627
3.190248559	77.9275
3.18828649	77.9026
3.186326834	77.9026
3.184369586	77.8826
3.18241474	77.8611
3.180462293	77.826
3.17851224	77.8069
3.176564577	77.784
3.1746193	77.7894
3.172676403	77.7815
3.170735883	77.7791
3.168797736	77.7659
3.166861956	77.7752
3.164928541	77.7361
3.162997484	77.7269
3.161068783	77.7596
3.159142432	77.7752
3.157218427	77.7249
3.155296765	77.7737
3.153378435	77.7776
3.151461443	77.7972
3.14954678	77.8201
3.147634443	77.8772
3.145724426	77.908
3.143816726	77.9412
3.141911338	77.9144
3.140008258	77.8577
3.138107483	77.7659
3.136209007	77.6424
3.134312827	77.4729
3.132418938	77.3787
3.130527337	77.2742
3.128638019	77.1761
3.126750981	77.1175
3.124866217	77.0516
3.122984699	77.0081
3.121104471	76.9788
3.119226507	76.9026
3.1173508	76.8904
3.115477349	76.8382
3.113606148	76.8187
3.111737193	76.7796
3.10987048	76.7288
3.108006006	76.7249
3.106143766	76.6956
3.104283756	76.6658
3.102425973	76.6272
3.100570412	76.6097
3.098717069	76.5818
3.096865941	76.555
3.095017023	76.4959
3.093170311	76.4607
3.091325802	76.4178
3.089483491	76.3792
3.087643375	76.3694
3.085805449	76.3416
3.08396971	76.3338
3.082136155	76.3045
3.080304778	76.2635
3.078476524	76.1956
3.076649492	76.178
3.074824627	76.1609
3.073001926	76.1316
3.071181385	76.1355
3.069363	76.0965
3.067546766	76.1141
3.065732681	76.1004
3.06392074	76.0594
3.06211094	76.0535
3.060303276	76.0086
3.058497745	76.0281
3.056694344	76.0301
3.054893068	75.993
3.053093914	75.9695
3.051296877	75.9754
3.049501955	75.9529
3.047709144	75.9314
3.045918439	75.9188
3.044129837	75.8943
3.042343335	75.8729
3.040558928	75.8475
3.038776613	75.8494
3.036996386	75.8357
3.035219166	75.8064
3.033443104	75.8055
3.031669119	75.7879
3.029897208	75.7752
3.028127367	75.7645
3.026359592	75.7273
3.02459388	75.7146
3.022830228	75.7264
3.021068631	75.7049
3.019309085	75.7049
3.017551589	75.6805
3.015796137	75.6629
3.014042726	75.6541
3.012291354	75.6219
3.010542015	75.6131
3.008794707	75.5926
3.007049426	75.574
3.005306169	75.5506
3.003564931	75.5242
3.00182571	75.5096
3.000088503	75.45
2.998353304	75.4422
2.996620112	75.3904
2.994888923	75.4168
2.993160628	75.3816
2.991433432	75.3797
2.989708228	75.3611
2.987985013	75.367
2.986263784	75.325
2.984544536	75.3143
2.982827267	75.282
2.981111973	75.2635
2.97939865	75.2693
2.977687296	75.2605
2.975977906	75.241
2.974270478	75.2391
2.972565009	75.243
2.970861493	75.2332
2.96915993	75.2381
2.967460314	75.2635
2.965763522	75.2147
2.964067792	75.2186
2.962373999	75.2234
2.960682141	75.2576
2.958992215	75.2654
2.957304216	75.2674
2.955618142	75.2977
2.95393399	75.3377
2.952251756	75.3572
2.950571437	75.4256
2.94889303	75.5086
2.947216531	75.5623
2.945541937	75.6297
2.943869245	75.7068
2.942198452	75.7684
2.940529554	75.8484
2.938862549	75.9549
2.937197432	76.0994
2.935534201	76.2068
2.933872853	76.2742
2.932213384	76.3719
2.930555792	76.4578
2.928900072	76.5896
2.927246222	76.6961
2.925595095	76.785
2.923944975	76.8914
2.922296715	76.9432
2.920650312	76.99
2.919005763	77.0018
2.917363066	76.9646
2.915722216	76.9578
2.91408321	76.8797
2.912446047	76.7625
2.910810722	76.6258
2.909177232	76.5008
2.907545575	76.3367
2.905915747	76.1404
2.904287745	75.9881
2.902661566	75.8592
2.901037208	75.7459
2.899414666	75.5906
2.897793938	75.493
2.896175022	75.4295
2.894557913	75.3885
2.892942609	75.3611
2.891329106	75.3484
2.889717403	75.3943
2.888107495	75.4158
2.886500214	75.4539
2.884893888	75.5037
2.883289349	75.5906
2.881686594	75.6814
2.880085619	75.7303
2.878486423	75.7791
2.876889001	75.8992
2.875293352	75.9266
2.873699471	75.9266
2.872107357	75.9646
2.870517006	75.9822
2.868928415	76.0076
2.867341582	75.9695
2.865756502	75.9217
2.864173175	75.9021
2.862591596	75.91
2.861011762	75.8865
2.859433672	75.8748
2.857857321	75.9119
2.856282708	75.9021
2.854709829	75.8865
2.853138681	75.867
2.851569261	75.8162
2.850001568	75.783
2.848436408	75.7068
2.846872156	75.6336
2.845309621	75.6023
2.8437488	75.5545
2.842189691	75.4773
2.840632291	75.3982
2.839076596	75.325
2.837522604	75.2772
2.835970313	75.2186
2.834419719	75.1502
2.83287082	75.0662
2.831323613	75.0232
2.829778094	74.9256
2.828234263	74.8826
2.826692114	74.8406
2.825151647	74.7391
2.823612858	74.6697
2.822075744	74.6873
2.820540303	74.6053
2.819006531	74.5682
2.817474427	74.5506
2.815943987	74.4939
2.81441521	74.4461
2.812888091	74.4139
2.811363418	74.3572
2.809839609	74.324
2.80831745	74.2967
2.806796939	74.2928
2.805278075	74.243
2.803760853	74.2195
2.802245271	74.1951
2.800731327	74.1912
2.799219018	74.1248
2.797708341	74.0936
2.796199294	74.0828
2.794691874	74.0711
2.793186078	74.0135
2.791681905	74.0203
2.79017935	73.9852
2.788678412	73.99
2.787179865	73.9979
2.785682151	74.0154
2.784186046	74.0203
2.782691547	74.0086
2.781198652	74.0477
2.779707358	74.0672
2.778217662	74.0389
2.776729562	74.0545
2.775243056	74.1023
2.77375814	74.1453
2.772274812	74.1248
2.77079307	74.119
2.769312911	74.1141
2.767834333	74.1619
2.766357333	74.1658
2.764881908	74.1961
2.763408056	74.2068
2.761935774	74.2147
2.760465061	74.2127
2.758995913	74.2469
2.757528328	74.2596
2.756062304	74.2732
2.754597837	74.282
2.753134926	74.3025
2.751674325	74.2576
2.750214517	74.2859
2.748756257	74.2938
2.747299542	74.2381
2.74584437	74.2664
2.74439074	74.2654
2.742938647	74.324
2.741488091	74.3357
2.740039067	74.3523
2.738591575	74.3484
2.737145611	74.2869
2.735701174	74.2479
2.73425826	74.2029
2.732816867	74.1883
2.731376994	74.1873
2.729938636	74.1375
2.728501793	74.1453
2.727066462	74.1092
2.72563264	74.076
2.724200325	74.074
2.722769514	74.0252
2.721340206	74.0369
2.719912397	74.0018
2.718486086	73.9813
2.717062008	73.9656
2.715638684	73.9647
2.714216851	73.9607
2.712796505	74.0125
2.711377646	73.9773
2.709960269	73.9852
2.708544374	74.0193
2.707129958	74.0076
2.705717018	74.0193
2.704305552	74.0135
2.702895558	74.0252
2.701487034	73.9764
2.700079976	73.9471
2.698674384	73.9188
2.697270255	73.8836
2.695867585	73.8553
2.694466374	73.8826
2.693066619	73.868
2.691668318	73.8641
2.690271467	73.8162
2.688876066	73.7928
2.687482111	73.7586
2.686089602	73.7537
2.684698534	73.7508
2.683309626	73.7234
2.681921436	73.744
2.680534681	73.7234
2.679149359	73.6678
2.677765469	73.6414
2.676383008	73.6502
2.675001973	73.6365
2.673622363	73.6688
2.672244175	73.574
2.670867407	73.5906
2.669492057	73.5682
2.668118123	73.4881
2.666745602	73.4813
2.665374493	73.492
2.664004793	73.5037
2.6626365	73.494
2.66127032	73.5203
2.659904834	73.451
2.658540748	73.4295
2.657178061	73.4578
2.65581677	73.4217
2.654456873	73.3787
2.653098368	73.3992
2.651741253	73.3836
2.650385525	73.3787
2.649031183	73.3201
2.647678224	73.326
2.646326647	73.3406
2.644976449	73.3094
2.643627628	73.2713
2.642280182	73.2576
2.640934109	73.2469
2.639589407	73.2127
2.638246073	73.1951
2.636904106	73.2049
2.635563503	73.2156
2.634224263	73.2303
2.632886383	73.2147
2.631549862	73.1522
2.630214697	73.201
2.628881577	73.1756
2.627549117	73.158
2.626218007	73.1522
2.624888245	73.1649
2.62355983	73.1326
2.622232758	73.1092
2.620907028	73.0818
2.619582638	73.1063
2.618259585	73.0897
2.616937869	73.0945
2.615617486	73.0858
2.614298435	73.0203
2.612980713	73.0203
2.61166432	73.0272
2.610349252	72.9959
2.609035507	72.9852
2.607723085	72.9764
2.606411982	72.9266
2.605102197	72.9022
2.603793727	72.9178
2.602486572	72.8983
2.601180728	72.8524
2.599876194	72.8611
2.598572968	72.8592
2.597271722	72.8533
2.595971105	72.825
2.59467179	72.8484
2.593373774	72.7899
2.592077057	72.7899
2.590781636	72.7498
2.589487509	72.7537
2.588194675	72.7234
2.58690313	72.7234
2.585612874	72.7039
2.584323905	72.6649
2.58303622	72.7039
2.581749817	72.6873
2.580464695	72.7274
2.579180852	72.6483
2.577898286	72.5867
2.576616995	72.5984
2.575336976	72.5936
2.574058229	72.5701
2.572780751	72.5086
2.571504541	72.5125
2.570229596	72.5662
2.568955915	72.5389
2.567683495	72.4734
2.566412994	72.4608
2.565143091	72.449
2.563874445	72.4529
2.562607053	72.4656
2.561340913	72.4959
2.560076024	72.4373
2.558812384	72.3865
2.55754999	72.3992
2.556288841	72.3846
2.555028936	72.3992
2.553770272	72.4061
2.552512847	72.41
2.55125666	72.41
2.550001709	72.4022
2.548747991	72.3836
2.547495506	72.3553
2.546244252	72.2928
2.544994225	72.2859
2.543745426	72.2498
2.542497852	72.2781
2.5412515	72.2772
2.54000637	72.2938
2.53876246	72.2234
2.537519767	72.2225
2.536278934	72.2693
2.535038671	72.2225
2.53379962	72.2078
2.53256178	72.2117
2.531325149	72.2078
2.530089725	72.1727
2.528855506	72.1609
2.52762249	72.1834
2.526390677	72.1971
2.525160064	72.158
2.523930648	72.1053
2.52270243	72.0701
2.521475406	72.0838
2.520249575	72.0975
2.519024936	72.0897
2.517801486	72.0955
2.516579857	72.0721
2.515358781	72.0858
2.514138889	72.033
2.512920179	72.0311
2.511702651	72.035
2.510486301	72.0057
2.50927113	71.9627
2.508057134	71.9998
2.506844312	71.9725
2.505632662	71.9608
2.504422183	71.908
2.503212874	71.8709
2.502004731	71.867
2.500797754	71.8514
2.499591942	71.8592
2.498387291	71.9139
2.497183801	71.8162
2.49598147	71.8553
2.494780296	71.8221
2.493580278	71.7576
2.492381413	71.7381
2.491183701	71.742
2.489987139	71.7518
2.488791726	71.7674
2.48759808	71.7225
2.486404959	71.744
2.485212983	71.6854
2.484022149	71.7381
2.482832455	71.742
2.4816439	71.7635
2.480456483	71.7029
2.479270202	71.7147
2.478085055	71.66
2.47690104	71.6756
2.475718156	71.658
2.474536402	71.658
2.473355775	71.6053
2.472176274	71.6346
2.470997898	71.6209
2.469820644	71.6463
2.468644512	71.6092
2.467469499	71.5701
2.466295604	71.535
2.465122826	71.4764
2.463951163	71.5428
2.462780612	71.5311
2.461611174	71.5858
2.460442845	71.5721
2.45927623	71.5662
2.458110116	71.449
2.456945108	71.5037
2.455781204	71.4881
2.454618401	71.5174
2.4534567	71.5037
2.452296097	71.5233
2.451136592	71.535
2.449978183	71.4803
2.448820868	71.5096
2.447664646	71.449
2.446509516	71.4608
2.445355475	71.4236
2.444202523	71.3865
2.443050657	71.3436
2.441899876	71.3572
2.440750179	71.3533
2.439601564	71.2791
2.43845403	71.324
2.437307575	71.3377
2.436162197	71.2928
2.435017895	71.3162
2.433874668	71.2869
2.432732513	71.2576
2.431592022	71.2303
2.430452008	71.2303
2.429313063	71.1834
2.428175185	71.1346
2.427038372	71.1463
2.425902624	71.0936
2.424767938	71.1033
2.423634312	71.1014
2.422501747	71.1033
2.421370239	71.0506
2.420239788	71.0936
2.419110392	71.0643
2.417982049	71.0955
2.416854758	71.1033
2.415728518	71.0721
2.414603328	71.1033
2.413479185	71.0643
2.412356088	71.0076
2.411234036	71.0486
2.410113027	70.992
2.40899306	70.9471
2.407874134	71.0076
2.406756246	70.91
2.405639396	70.9627
2.40452416	70.949
2.40340938	70.9373
2.402295634	70.9627
2.401182919	71.0467
2.400071234	70.9061
2.398960578	70.8299
2.39785095	70.8279
2.396742348	70.8553
2.39563477	70.8865
2.394528216	70.8436
2.393422683	70.7694
2.392318171	70.826
2.391214677	70.9061
2.390112201	70.824
2.389010742	70.8143
2.387910297	70.7694
2.386811435	70.742
2.385713014	70.699
2.384615605	70.7361
2.383519204	70.699
2.382423811	70.6795
2.381329425	70.7127
2.380236043	70.699
2.379143665	70.6561
2.37805229	70.6209
2.376961915	70.6697
2.375872539	70.6268
2.374784162	70.6424
2.373696781	70.7303
2.372610396	70.6678
2.371525004	70.6951
2.370440606	70.742
2.369357198	70.6951
2.368274781	70.6717
2.367193351	70.5858
2.366112909	70.5897
2.365033453	70.5701
2.363954982	70.5252
2.362877493	70.5936
2.361800987	70.5584
2.360726018	70.4412
2.35965147	70.4705
2.3585779	70.3826
2.357505307	70.4686
2.356433688	70.41
2.355363044	70.3846
2.354293372	70.4236
2.353224671	70.4471
2.35215694	70.4061
2.351090177	70.3826
2.350024382	70.3143
2.348959552	70.3709
2.347895687	70.3279
2.346832785	70.3436
2.345770845	70.2928
2.344709866	70.3358
2.343649846	70.3377
2.342590784	70.2772
2.341532678	70.283
2.340475528	70.3065
2.339419333	70.3162
2.33836409	70.3533
2.337309798	70.3143
2.336256457	70.2518
2.335204611	70.2127
2.334153166	70.2108
2.333102667	70.244
2.332053114	70.2674
2.331004504	70.2029
2.329956838	70.1815
2.328910112	70.16
2.327864326	70.2029
2.32681948	70.2127
2.325775571	70.2069
2.324732598	70.1014
2.32369056	70.1268
2.322649456	70.1053
2.321609284	70.074
2.320570043	70.0623
2.319531733	70.0311
2.318494351	70.0233
2.317457897	70.0233
2.316422369	70.0252
2.315387766	70.0076
2.314354087	69.9764
2.31332133	69.9139
2.312289495	69.9861
2.31125858	69.9783
2.310229117	69.9061
2.309200038	69.8533
2.308171875	69.8084
2.307144627	69.8475
2.306118293	69.8592
2.305092872	69.9471
2.304068363	69.91
2.303044763	69.9158
2.302022073	69.9295
2.301000291	69.91
2.299979415	69.8787
2.298959445	69.8846
2.297940379	69.8475
2.296922216	69.7518
2.295904955	69.8201
2.294888595	69.8611
2.29387366	69.8143
2.292859097	69.8201
2.291845431	69.8221
2.29083266	69.8065
2.289820785	69.7205
2.288809803	69.6736
2.287799713	69.7459
2.286790515	69.7772
2.285782206	69.7694
2.284774786	69.7733
2.283768254	69.7186
2.282762608	69.7186
2.281757848	69.7049
2.280753972	69.619
2.279750978	69.6326
2.278748867	69.8065
2.277747636	69.6092
2.276747284	69.6268
2.275747811	69.5858
2.274749215	69.5819
2.273751494	69.5936
2.272754649	69.6639
2.271758677	69.6268
2.270763578	69.5506
2.269769866	69.5487
2.268776508	69.5975
2.267784019	69.4998
2.266792398	69.5076
2.265801644	69.5252
2.264811756	69.4471
2.263822732	69.4959
2.262834571	69.5311
2.261847273	69.4529
2.260860836	69.3865
2.259875259	69.4373
2.258890541	69.4471
2.257906681	69.408
2.256923678	69.3592
2.25594153	69.2811
2.254960236	69.2889
2.253979796	69.3299
2.253000208	69.3631
2.252021471	69.3533
2.251043584	69.3377
2.250066546	69.3201
2.249090355	69.2752
2.248115012	69.2811
2.247140514	69.2694
2.246167365	69.3358
2.245194554	69.3045
2.244222586	69.2576
2.243251458	69.3123
2.242281171	69.2186
2.241311723	69.1893
2.240343113	69.2381
2.23937534	69.2576
2.238408402	69.2596
2.237442299	69.2303
2.23647703	69.2205
2.235512593	69.1815
2.234548988	69.2596
2.233586213	69.2498
2.232624267	69.119
2.231663149	69.1092
2.230702859	69.0487
2.229743394	69.0858
2.228784755	69.0701
2.22782694	69.0233
2.226869947	69.1131
2.225913777	69.1639
2.224958427	69.1815
2.224003896	69.1424
2.223050679	69.0565
2.222097785	69.0408
2.221145707	69.0701
2.220194445	69.0487
2.219243997	69.1424
2.218294362	69.1248
2.21734554	69.1092
2.21639753	69.0408
2.215450329	69.1326
2.214503938	69.117
2.213558355	69.0018
2.212613579	69.033
2.211669609	68.9627
2.210726445	68.9237
2.209784084	68.9139
2.208842527	68.8768
2.207901771	68.8768
2.206961817	68.9334
2.206022662	68.9295
2.205084307	68.9393
2.204146749	68.8924
2.203209989	68.7889
2.202274024	68.8065
2.201338854	68.7908
2.200404963	68.6951
2.199471379	68.6639
2.198538587	68.6268
2.197606587	68.7811
2.196675376	68.7108
2.195744954	68.7205
2.194815319	68.7049
2.193886472	68.6737
2.192958411	68.6717
2.192031134	68.5799
2.191104641	68.6873
2.190178931	68.6737
2.189254003	68.6483
2.188329856	68.6502
2.187406488	68.5701
2.1864839	68.6678
2.185562567	68.6971
2.184641533	68.6639
2.183721275	68.6971
2.182801792	68.6639
2.181883083	68.6404
2.180965147	68.6033
2.180047983	68.7049
2.17913159	68.6502
2.178215967	68.6014
2.177301113	68.5545
2.176387028	68.5174
2.175473709	68.5662
2.174561157	68.5096
2.17364937	68.4608
2.172738348	68.4764
2.171828089	68.5096
2.170918592	68.3377
2.170009856	68.5018
2.169101881	68.4295
2.168194666	68.2908
2.167288209	68.3201
2.166382509	68.3201
2.165477567	68.3826
2.16457338	68.3475
2.163670416	68.2908
2.162767737	68.1502
2.161865811	68.2596
2.160964637	68.2655
2.160064214	68.3123
2.159164542	68.2967
2.158265618	68.3748
2.157367442	68.3768
2.156470014	68.328
2.155573332	68.3592
2.154677395	68.3221
2.153782203	68.2655
2.152887754	68.2752
2.151994048	68.2186
2.151101084	68.3065
2.150208861	68.2752
2.149317377	68.3377
2.148426632	68.2498
2.147536625	68.1795
2.146647355	68.2049
2.145758822	68.2186
2.144871024	68.2049
2.14398396	68.2362
2.143097629	68.1756
2.14221249	68.1053
2.141327623	68.0897
2.140443487	68.0155
2.139560081	68.1131
2.138677403	67.9881
2.137795454	67.9803
2.136914232	68.0858
2.136033736	68.1131
2.135153965	67.9959
2.134274919	67.953
2.133396596	67.992
2.132518995	68.0819
2.131642117	68.0623
2.130765959	68.0155
2.129890521	67.9881
2.129015803	67.8944
2.128141802	67.8944
2.127268519	68.0076
2.126395952	67.9295
2.125524101	67.867
2.124652964	67.8123
2.123782542	67.8905
2.122912832	67.91
2.122043834	67.9061
2.121175997	67.7889
2.12030842	67.8748
2.119441553	67.8436
2.118575394	67.8201
2.117709942	67.8709
2.116845198	67.7889
2.115981159	67.7967
2.115117826	67.8944
2.114255197	67.828
2.113393271	67.8319
2.112532047	67.7694
2.111671525	67.7694
2.110811704	67.7342
2.109952583	67.8201
2.109094161	67.8084
2.108236437	67.7225
2.107379855	67.6326
2.106523524	67.6717
2.105667889	67.6717
2.104812949	67.6756
2.103958703	67.6248
2.103105151	67.4881
2.10225229	67.4764
2.101400121	67.6287
2.100548642	67.617
2.099697853	67.6287
2.098847754	67.5506
2.097998342	67.578
2.097149617	67.5545
2.096301579	67.4998
2.095454226	67.5467
2.094607559	67.5975
2.093761575	67.4998
2.092916274	67.4803
2.092071655	67.4764
2.091227718	67.492
2.090384461	67.4725
2.089541885	67.5936
2.088699987	67.574
2.087858767	67.4725
2.08701866	67.3983
2.086178794	67.449
2.085339604	67.5389
2.084501088	67.4686
2.083663247	67.4295
2.082826078	67.3631
2.081989583	67.3944
2.081153758	67.4061
2.080318605	67.3592
2.079484122	67.3201
