Name:  Labradorite (Na,Ca)Al(Al,Si)Si2O8
Type:  Mineral
Class:  Silicates
Subclass:  Tectosilicates (Framework Silicates); (Feldspar Group)
Particle Size:  Fine  (Less than 2 micrometers)
Sample No.: labrador.1
Owner:  JHU
Wavelength Range:  IR
Origin: Lake County, Oregon, acquired from the Smithsonian (sample 
no. NMNH 115500) via Dave Stewart, USGS
Description: The sample consisted of a 2 cm x 1 cm x 0.2 cm, 0.536 g 
portion, of a single transparent crystal.  The fragment seemed to 
have been sawn on one side.  A very, very small amount of iron 
oxide stain could be seen on the surface of the fragment and still less 
on the inside.  No impurities were detected under the microscope.

Measurement:  Transmission 
First Column:  X
Second Column:  Y  
X Units:  Wavelength (micrometers)
Y Units:  Transmittence (percent)
First X Value:  25.0442
Last X Value:  2.079
Number of X Values:  2287
Additional Information:  labrad1a.txt

25.04420302	46.4491
24.9237955	46.4999
24.80454022	47.3866
24.68642074	47.8436
24.5694209	48.3612
24.45358465	48.4257
24.3387763	49.1835
24.22504094	49.4862
24.11236361	49.9393
24.00072962	50.1757
23.89012454	50.6893
23.78053421	51.2128
23.67194472	51.8475
23.56434244	52.3456
23.45771395	52.5936
23.35204611	53.1327
23.24732598	53.7323
23.14354087	54.1483
23.04067832	55.2391
22.93872607	56.5829
22.83767211	57.6649
22.7375046	59.1844
22.63821194	60.6815
22.53978272	61.4774
22.44220571	62.5477
22.3454699	63.4725
22.24956446	63.8494
22.15447875	64.0194
22.06020229	64.3455
21.96677306	64.0213
21.87408402	63.2743
21.7821739	62.576
21.69103293	61.8953
21.60065148	61.1844
21.5110201	60.6424
21.42212949	60.408
21.33397051	60.6717
21.24653416	60.9979
21.15981159	61.4266
21.0737941	61.9569
20.98847313	62.4159
20.90384024	63.2625
20.81988716	63.8953
20.73660571	64.5643
20.65398787	65.6795
20.57202575	67.0047
20.49071156	68.159
20.41003766	69.3778
20.3299965	70.202
20.25058069	70.8318
20.1717829	71.1785
20.09359597	71.1639
20.01601281	70.7264
19.93906621	70.3797
19.8626695	69.7386
19.78685599	69.2362
19.71161901	68.4666
19.63695203	67.7698
19.56284859	66.9285
19.48930232	66.2655
19.41630698	65.2889
19.34385639	64.5081
19.27194448	63.5081
19.20056526	62.66
19.12971284	61.5316
19.05938141	60.4105
18.98956523	58.973
18.92025868	57.3617
18.85145618	55.4139
18.78315226	53.2035
18.71534153	50.8636
18.64801865	48.7616
18.58117838	47.1473
18.51481556	46.454
18.44892507	46.7562
18.38350191	47.7665
18.31854111	49.0355
18.25407111	50.1464
18.19002023	50.8768
18.12641726	51.2772
18.06325753	51.3563
18.00053642	50.9354
17.93824937	50.1669
17.8763919	49.1425
17.81495958	47.8651
17.75394803	46.2704
17.69335296	44.7235
17.63317011	43.2333
17.57339529	41.9481
17.51402436	40.7665
17.45505324	39.9022
17.39647791	39.4184
17.3382944	39.2489
17.28049878	39.3192
17.2230872	39.5409
17.16605584	39.8544
17.10940093	40.2108
17.05311876	40.6522
16.99720566	41.223
16.94165801	41.9696
16.88647225	42.7196
16.83167317	43.4442
16.77720046	44.2294
16.72307919	44.952
16.66930597	45.5643
16.61587747	46.0433
16.56279037	46.368
16.51004141	46.8231
16.45762737	47.1503
16.40554507	47.3329
16.35379138	47.3422
16.30236319	47.2797
16.25125744	47.0702
16.20047111	46.704
16.15000121	46.1503
16.0998448	45.6644
16.04999896	45.4022
16.00048641	45.5448
15.95125297	46.1849
15.90232158	47.3324
15.85368947	48.8759
15.80535391	50.7269
15.75731218	52.7972
15.70956162	54.8954
15.6620996	56.9476
15.61492349	58.8402
15.56803074	60.6375
15.52141878	62.2874
15.47508511	63.6395
15.42902725	64.7821
15.38324273	65.7381
15.33772913	66.5155
15.29248405	67.0687
15.24750513	67.4388
15.20279002	67.6556
15.1583364	67.6644
15.114142	67.5487
15.07020455	67.3348
15.02652181	67.1346
14.98309158	66.9061
14.93991168	66.722
14.89700213	66.5916
14.85431629	66.5067
14.81187438	66.5042
14.76967431	66.5682
14.72771402	66.7552
14.68599147	66.9017
14.64450465	67.0946
14.60325156	67.3319
14.56223023	67.7025
14.52143873	68.0784
14.48087511	68.4451
14.44053748	68.8133
14.40042395	69.0091
14.36053266	69.1351
14.32086177	69.241
14.28140946	69.3343
14.24217393	69.3377
14.20315338	69.346
14.16434607	69.3079
14.12575025	69.3143
14.0873642	69.2874
14.0491862	69.2606
14.01121458	69.1331
13.97344765	68.9564
13.93590321	68.7635
13.89854065	68.3653
13.8613779	67.8875
13.82441336	67.4874
13.78764544	66.9971
13.75107258	66.4554
13.71469324	66.0137
13.67850587	65.7169
13.64250897	65.4434
13.60670103	65.2442
13.57108057	65.0167
13.53564612	64.9669
13.50039624	64.9344
13.46532947	64.8299
13.4304444	64.741
13.39573962	64.7208
13.36121373	64.7557
13.32686536	64.6317
13.29269314	64.5548
13.25869572	64.5694
13.22487175	64.8221
13.19121992	64.9356
13.15773892	65.0975
13.12442745	65.2723
13.09130135	65.6026
13.05832501	65.9949
13.02551438	66.3416
12.99286821	66.6309
12.96038529	66.9759
12.92806437	67.4317
12.89590426	68.0848
12.86390376	68.7938
12.83206168	69.4737
12.80037684	70.3133
12.7688481	71.3467
12.73747429	72.337
12.70625427	73.2305
12.67518693	74.1385
12.64427113	74.9668
12.61350579	75.7352
12.58290562	76.4268
12.55243781	77.0979
12.52211719	77.597
12.4919427	78.073
12.46191328	78.4095
12.43202789	78.8038
12.40228549	78.9803
12.37268507	79.1707
12.34322561	79.1397
12.31390609	78.9666
12.28472554	78.5577
12.25568296	78.1228
12.22677738	77.5567
12.19800782	76.8362
12.16937334	75.9883
12.14087298	75.0164
12.1125058	74.1424
12.08427087	73.2566
12.05616727	72.3709
12.02819409	71.3626
12.00035041	70.3709
11.97263534	69.4424
11.945048	68.5389
11.9175875	67.5567
11.8902671	66.699
11.86305761	65.8145
11.83597236	65.033
11.80901051	64.2254
11.78217122	63.4923
11.75545365	62.753
11.72885698	62.1436
11.70238038	61.3878
11.67602305	60.7638
11.64978419	60.1419
11.62366299	59.4698
11.59765866	58.6944
11.57177043	57.9823
11.54599752	57.2054
11.52033916	56.3526
11.49479458	55.4532
11.46936304	54.4649
11.44404378	53.3671
11.41883606	52.2101
11.39373914	51.0021
11.3687523	49.7596
11.34387482	48.4657
11.31910597	47.037
11.29444505	45.6405
11.26990406	44.162
11.24545684	42.7055
11.22111545	41.3165
11.19687921	39.9711
11.17274743	38.6557
11.14871946	37.4357
11.12479461	36.255
11.10097222	35.1918
11.07725165	34.1349
11.05363222	33.1776
11.03011331	32.2453
11.00669427	31.352
10.98337447	30.5273
10.96015327	29.7724
10.93703005	29.0566
10.9140042	28.3622
10.89107509	27.7717
10.86824213	27.1943
10.8455047	26.6786
10.82286221	26.2131
10.80031407	25.7949
10.77785969	25.3984
10.75549848	25.1244
10.73322986	24.8525
10.71106474	24.5771
10.68897956	24.4028
10.66698525	24.2397
10.64508128	23.9682
10.62326708	23.7363
10.6015421	23.6513
10.5799058	23.6369
10.55835763	23.5744
10.53689705	23.5312
10.51552354	23.5283
10.49423657	23.5637
10.4730356	23.591
10.45192012	23.5995
10.43088962	23.6557
10.40994358	23.706
10.38908149	23.7585
10.36830285	23.7858
10.34760717	23.8657
10.32699394	23.8864
10.30646267	23.8967
10.28601287	23.8525
10.26564407	23.8039
10.24535578	23.7082
10.22514752	23.5969
10.20502924	23.5012
10.1849796	23.4086
10.16500858	23.3146
10.14511574	23.216
10.12530059	23.164
10.10556271	23.1193
10.08590162	23.1069
10.0663169	23.1152
10.04680808	23.2162
10.02737473	23.3281
10.00801642	23.4516
9.98873271	23.6013
9.969523168	23.7851
9.950387369	23.9826
9.931324888	24.215
9.912335307	24.434
9.893427994	24.6713
9.874582922	24.9282
9.855809507	25.2155
9.83710734	25.4533
9.818476015	25.7209
9.799915133	25.986
9.781424293	26.2375
9.7630031	26.5019
9.744651161	26.7656
9.726368087	27.0256
9.70815349	27.2699
9.690006986	27.5702
9.671928196	27.8442
9.653916739	28.1742
9.635972241	28.4682
9.618094328	28.7543
9.600282632	29.0273
9.582536785	29.3459
9.564856422	29.6037
9.547241181	29.839
9.529690704	30.0732
9.512204634	30.2924
9.494782617	30.4511
9.477424301	30.5968
9.460138288	30.7065
9.4429063	30.8002
9.425736975	30.8556
9.408629972	30.8945
9.391584952	30.914
9.374601579	30.872
9.35767952	30.8207
9.340818443	30.7521
9.324018018	30.7157
9.307277919	30.6576
9.290597822	30.5695
9.273977405	30.4406
9.257416348	30.2734
9.240914333	30.0927
9.224471046	29.9396
9.208086173	29.7172
9.191759404	29.5744
9.17549043	29.4523
9.159278945	29.3166
9.143124645	29.2338
9.127027227	29.2275
9.110986392	29.3051
9.095001842	29.3495
9.079073281	29.5038
9.06320863	29.7277
9.04739114	29.9604
9.031628764	30.2089
9.015921215	30.5038
9.000268208	30.7824
8.984669459	31.0741
8.969124685	31.3251
8.953633608	31.5634
8.93819595	31.7746
8.922811435	31.9716
8.907479789	32.1173
8.89220074	32.2289
8.876974017	32.2738
8.861799353	32.2909
8.846676481	32.2902
8.831605135	32.2607
8.816585054	32.1547
8.801615977	32.0495
8.786697643	31.9496
8.771829795	31.8703
8.757012178	31.8234
8.742244536	31.7804
8.727526619	31.8254
8.712858175	31.8915
8.69824652	32.0666
8.683676252	32.2841
8.669154714	32.6403
8.654681663	33.0307
8.640256858	33.464
8.625880055	33.9618
8.611551018	34.5419
8.597269507	35.1064
8.583035287	35.7096
8.568848124	36.3593
8.554707784	36.9972
8.540614036	37.7038
8.52656665	38.4694
8.512565398	39.2511
8.498610052	40.027
8.484700388	40.859
8.470836182	41.6989
8.45701721	42.579
8.443243252	43.4569
8.429514089	44.3671
8.415829502	45.2806
8.402189274	46.2396
8.388593191	47.1595
8.375041038	48.1395
8.361539594	49.1083
8.348074642	50.1244
8.334652987	51.1088
8.32127442	52.1273
8.307938734	53.0887
8.294645723	54.0599
8.281395183	54.9706
8.268186911	55.8573
8.255020704	56.7186
8.241896361	57.5165
8.228813685	58.2972
8.215772476	58.9969
8.202772537	59.681
8.189813674	60.2855
8.176895691	60.9261
8.164018395	61.4686
8.151188239	62.0448
8.138391724	62.5335
8.125635323	63.096
8.11291885	63.5887
8.100242116	64.0794
8.087604937	64.4998
8.075007126	64.9647
8.062448501	65.369
8.049928879	65.7642
8.037448078	66.1375
8.025005918	66.5321
8.012602221	66.9097
8.000236807	67.2532
7.9879095	67.6326
7.975620124	68.0296
7.963368505	68.4334
7.951154468	68.8062
7.938977841	69.178
7.926838452	69.4649
7.914736131	69.7601
7.902670708	69.9598
7.890642014	70.1917
7.878649883	70.3734
7.866694148	70.6522
7.854780812	70.867
7.842897355	71.1475
7.831049799	71.3743
7.819237984	71.6695
7.807461747	71.8924
7.795720929	72.1341
7.784015369	72.345
7.772344909	72.5911
7.760709391	72.8235
7.749108659	73.0201
7.737542556	73.2523
7.726010929	73.41
7.714513623	73.6336
7.703050485	73.8069
7.691621363	74.0582
7.680226106	74.1966
7.668864563	74.4593
7.657536586	74.6541
7.646242025	74.8987
7.634980733	75.0814
7.623752563	75.3123
7.61255737	75.4847
7.601395008	75.6968
7.590265333	75.8584
7.579173946	76.0442
7.568109199	76.2049
7.557076711	76.3912
7.546076342	76.5765
7.535107952	76.7518
7.524171401	76.8838
7.51326655	77.0462
7.502393263	77.2171
7.491551403	77.3431
7.480740833	77.5545
7.469961418	77.6834
7.459213023	77.8631
7.448495516	77.9446
7.437808762	78.1316
7.42715263	78.2049
7.416526989	78.3658
7.405931707	78.4593
7.395366655	78.6292
7.384831703	78.7337
7.374326724	78.9036
7.363851589	79.0198
7.353406171	79.1443
7.342990345	79.2762
7.332603984	79.4256
7.322252325	79.5564
7.311924506	79.6502
7.30162578	79.8084
7.291356025	79.9065
7.281115117	80.0413
7.270902937	80.1663
7.260719363	80.3167
7.250564275	80.3709
7.240437554	80.4895
7.230339081	80.5503
7.220268738	80.6751
7.210226408	80.7947
7.200211974	81.0318
7.19022532	81.1399
7.18026633	81.3362
7.17033489	81.4959
7.160436013	81.6873
7.150559317	81.7952
7.140709829	81.9461
7.130887439	82.0389
7.121092034	82.1512
7.111323503	82.2591
7.101581735	82.2889
7.091866622	82.3304
7.082178053	82.3514
7.07251592	82.45
7.062880115	82.5037
7.053270531	82.6717
7.04368706	82.7454
7.034129597	82.8533
7.024598035	82.8904
7.01509227	83.0393
7.005612196	83.117
6.99615771	83.2693
6.986728709	83.3789
6.977325089	83.5115
6.967946748	83.594
6.958593585	83.7403
6.949265497	83.8186
6.939962385	83.9141
6.930688952	83.9827
6.921435478	84.0535
6.912206681	84.1241
6.903002461	84.177
6.893822721	84.2527
6.884667364	84.26
6.875536292	84.3357
6.866429409	84.3767
6.857346618	84.4988
6.848287825	84.4563
6.839252935	84.5476
6.830241852	84.5686
6.821254483	84.6704
6.812290735	84.6878
6.803350514	84.7849
6.794433728	84.8118
6.785540285	84.8745
6.776670093	84.8972
6.767823062	84.9544
6.7589991	84.9929
6.750198118	85.0511
6.741420026	85.1126
6.732664735	85.1922
6.723932156	85.302
6.715226709	85.3386
6.706539278	85.4495
6.697874296	85.4973
6.689231675	85.6087
6.680611329	85.6607
6.672013173	85.7393
6.663437121	85.7471
6.654883087	85.8386
6.646350987	85.8758
6.637840737	86.0547
6.629352253	86.0515
6.620885451	86.0945
6.612440248	86.1216
6.604016563	86.2097
6.595614312	86.2581
6.587233415	86.3513
6.578873789	86.4226
6.570535354	86.4514
6.56221803	86.4842
6.553921736	86.5025
6.545646392	86.5864
6.537391921	86.596
6.529158241	86.6697
6.520945276	86.6878
6.512757189	86.7735
6.504585407	86.8006
6.496434107	86.927
6.488303211	86.9221
6.480192643	86.9749
6.472102327	86.9749
6.464032186	87.0022
6.455982145	86.992
6.44795213	87.0681
6.439942066	87.094
6.431951879	87.1507
6.423981494	87.2132
6.416030838	87.3303
6.408099838	87.3318
6.400188422	87.2654
6.392296516	87.3089
6.384424048	87.2923
6.376570948	87.3533
6.368737143	87.3445
6.360922563	87.366
6.353127136	87.3489
6.345350793	87.4807
6.337593464	87.4304
6.329855078	87.4622
6.322139564	87.46
6.314438848	87.5188
6.30675687	87.4988
6.29909356	87.5286
6.291448851	87.5027
6.283822676	87.51
6.276214965	87.5379
6.268625654	87.552
6.261054675	87.5347
6.253501961	87.5159
6.245967447	87.5178
6.238451067	87.4527
6.230952756	87.4212
6.223472449	87.3562
6.21601008	87.3472
6.208565585	87.2036
6.201142747	87.1209
6.1937338	86.9878
6.186342535	86.9705
6.178968891	86.8269
6.171612803	86.7381
6.164274209	86.6541
6.156953047	86.6604
6.149649255	86.6072
6.14236277	86.6333
6.135093533	86.678
6.12784148	86.7659
6.120606552	86.7752
6.113388688	86.7468
6.106187828	86.7229
6.099003911	86.7254
6.091836878	86.8167
6.084686669	86.8633
6.077553226	87.0266
6.070436489	87.1355
6.063336399	87.3035
6.056252899	87.4951
6.049185931	87.8474
6.042135436	87.9983
6.035101357	88.2302
6.02808727	88.4802
6.021085843	88.7942
6.01410066	89.0613
6.007131667	89.3255
6.000178805	89.5193
5.99324202	89.6887
5.986321256	89.8118
5.979416457	89.8631
5.972527568	89.8997
5.965654534	89.8845
5.9587973	89.8616
5.951955813	89.8045
5.945130017	89.8259
5.938319859	89.8386
5.931525286	89.8762
5.924746243	89.7981
5.917982678	89.8508
5.911234538	89.8323
5.904501769	89.9041
5.89778432	89.9666
5.891082139	90.0481
5.884395172	90.0452
5.87772337	90.1021
5.871066679	90.072
5.864428488	90.1633
5.85780186	90.2068
5.851190191	90.2468
5.84459343	90.3137
5.838011527	90.3718
5.831444431	90.4605
5.824892094	90.531
5.818354465	90.6546
5.811831494	90.6301
5.805323133	90.7188
5.798829332	90.7312
5.792350043	90.8218
5.785885217	90.8445
5.779434806	90.9221
5.772998761	90.9373
5.766577035	91.0618
5.760169579	91.0588
5.753776347	91.0833
5.747397291	91.095
5.741032364	91.1277
5.734681519	91.1687
5.728344709	91.2088
5.722021888	91.2444
5.715713009	91.2463
5.709421287	91.2991
5.703140149	91.2991
5.696872816	91.3362
5.690619242	91.3318
5.684379382	91.3611
5.678153192	91.3421
5.671940626	91.4334
5.66574164	91.4226
5.659556189	91.4778
5.653384229	91.4656
5.647225716	91.5637
5.641080605	91.5989
5.634948854	91.6546
5.628830419	91.6384
5.622725256	91.6609
5.616633323	91.678
5.610557723	91.7283
5.604492113	91.803
5.598439603	91.8313
5.592400152	91.8733
5.586373717	91.8699
5.580360257	91.9495
5.574359729	91.9412
5.568372092	91.9895
5.562397304	91.9837
5.556435324	92.0754
5.550486112	92.0715
5.544549625	92.1008
5.538625823	92.0652
5.532714665	92.1248
5.526816112	92.1194
5.520930122	92.156
5.515056656	92.1394
5.509195674	92.177
5.503347136	92.1892
5.497511002	92.2412
5.491687233	92.2864
5.48587579	92.3049
5.480076633	92.3562
5.474289725	92.3655
5.468518015	92.449
5.462755479	92.4793
5.457005076	92.5169
5.451266765	92.491
5.445540511	92.5774
5.439826274	92.554
5.434124016	92.6233
5.428433701	92.6492
5.422755291	92.7293
5.417088748	92.6897
5.411434035	92.719
5.405791116	92.7368
5.400159953	92.7698
5.394540509	92.7747
5.388932749	92.7991
5.383336635	92.8264
5.377752132	92.8352
5.372179203	92.8821
5.366617813	92.8928
5.361067925	92.9575
5.355529504	92.9729
5.350002515	93.0447
5.344486921	93.0188
5.338982689	93.075
5.333492627	93.0652
5.328011006	93.1301
5.32254064	93.0964
5.317081497	93.1755
5.31163354	93.1721
5.306196736	93.2268
5.30077105	93.2522
5.295356449	93.3054
5.289952898	93.3079
5.284560364	93.3206
5.279178813	93.346
5.273808212	93.363
5.268448526	93.4085
5.263099724	93.4265
5.257761771	93.4807
5.252434635	93.4783
5.247118283	93.53
5.241812682	93.5183
5.236517799	93.5779
5.231233603	93.5759
5.225960061	93.658
5.220697141	93.6179
5.21544481	93.6868
5.210203036	93.6902
5.204974498	93.7454
5.19975374	93.7253
5.194543444	93.7595
5.189343579	93.7737
5.184154115	93.8171
5.178975019	93.8245
5.173806261	93.825
5.168647809	93.8811
5.163499634	93.926
5.158361704	93.9822
5.153233989	93.9646
5.148116459	94.0007
5.143009082	93.9719
5.137911829	94.0491
5.13282467	94.03
5.127747575	94.0686
5.122680514	94.0237
5.117623458	94.074
5.112576376	94.0732
5.107539239	94.1377
5.102512018	94.137
5.097494683	94.196
5.092487206	94.2214
5.087489558	94.2439
5.082504292	94.2722
5.077526209	94.281
5.072557868	94.2981
5.06759924	94.3054
5.062650297	94.3374
5.057711011	94.3272
5.052781354	94.3835
5.047861297	94.3503
5.042950812	94.4031
5.038049872	94.4155
5.033158448	94.4746
5.028276513	94.4541
5.023404039	94.4854
5.018541	94.4424
5.013687367	94.5137
5.008843113	94.5088
5.004010715	94.5471
4.999185133	94.5427
4.994368849	94.5801
4.989561837	94.5881
4.984764069	94.6052
4.979975518	94.6465
4.97519616	94.647
4.970425966	94.6638
4.96566491	94.6963
4.960912967	94.7434
4.95617011	94.7376
4.951436313	94.8066
4.94671155	94.7803
4.941995795	94.8401
4.937289023	94.8145
4.932591209	94.8306
4.927902325	94.8342
4.923222347	94.8752
4.918551251	94.8425
4.913889009	94.8765
4.909235598	94.8877
4.904590991	94.9058
4.899955165	94.8926
4.895328095	94.9395
4.890712146	94.9656
4.886102507	94.9402
4.88150155	94.9551
4.876909249	94.9473
4.87232558	94.9954
4.86775052	95.0022
4.863184043	95.0464
4.858626126	95.0339
4.854076745	95.0957
4.849535875	95.0896
4.845003493	95.124
4.840479575	95.0803
4.835964098	95.1233
4.831457037	95.1404
4.826958369	95.1482
4.822468072	95.1345
4.81798612	95.1973
4.813512492	95.2302
4.809047164	95.2383
4.804590113	95.2507
4.800141316	95.2473
4.79570075	95.2866
4.791268392	95.2849
4.78684422	95.3333
4.782430498	95.3193
4.778022625	95.3611
4.773622869	95.3687
4.769231209	95.4163
4.764847623	95.3848
4.760472086	95.4316
4.756104579	95.4167
4.751745078	95.4636
4.747393562	95.4504
4.743050009	95.4954
4.738714396	95.4875
4.734386703	95.5188
4.730066907	95.5222
4.725754987	95.543
4.721450921	95.5601
4.717154688	95.5776
4.712866266	95.5999
4.708585635	95.5972
4.704312773	95.5999
4.700047658	95.6365
4.695790271	95.6804
4.691540589	95.6726
4.687298593	95.7295
4.68306426	95.6824
4.67883976	95.7266
4.67462069	95.6877
4.670409221	95.7305
4.666205334	95.7061
4.662009009	95.7371
4.657820224	95.7422
4.65363896	95.7727
4.649465195	95.7898
4.645298911	95.8254
4.641140087	95.8455
4.636988702	95.8831
4.632844738	95.915
4.628708174	95.9128
4.62457899	95.9377
4.620457167	95.9373
4.616342684	95.9915
4.612235523	96.0471
4.608135664	96.1577
4.604043086	96.1086
4.599957772	96.0684
4.595879702	96.0388
4.591808856	96.084
4.587745215	96.0779
4.58368876	96.1013
4.57964157	96.0896
4.575599426	96.137
4.571564412	96.1436
4.567536508	96.176
4.563515696	96.1731
4.559501956	96.1785
4.555495271	96.1738
4.551495621	96.1294
4.547502989	96.1824
4.543517355	96.1746
4.539538701	96.2043
4.535567009	96.2053
4.531602261	96.2595
4.527644439	96.2444
4.523693523	96.2764
4.519749497	96.2427
4.515814382	96.2571
4.511884077	96.2568
4.507960608	96.2981
4.504043956	96.2859
4.500134104	96.3162
4.496231034	96.302
4.492334729	96.333
4.488445171	96.3308
4.484562343	96.3218
4.480686226	96.3518
4.476816804	96.3506
4.47295406	96.3633
4.469097975	96.364
4.465248534	96.385
4.461405718	96.377
4.45756951	96.3977
4.453739894	96.3906
4.449916853	96.4197
4.44610037	96.3984
4.442290427	96.4397
4.438487009	96.4463
4.434690097	96.4709
4.430899676	96.4785
4.42711573	96.5105
4.423340197	96.5046
4.419569145	96.4895
4.415804518	96.4587
4.412046298	96.4719
4.408294471	96.5417
4.404549018	96.5437
4.400809925	96.5547
4.397077175	96.5674
4.393350752	96.6013
4.389630639	96.5762
4.385916821	96.6436
4.382209282	96.646
4.378508006	96.6863
4.374812977	96.6804
4.371124179	96.7256
4.367441596	96.7107
4.363765214	96.7246
4.360095015	96.7292
4.356430985	96.7393
4.352773108	96.7048
4.349121369	96.7112
4.345475751	96.719
4.341836241	96.7292
4.338202821	96.7522
4.334577357	96.7595
4.330956072	96.7795
4.327340832	96.7949
4.323731623	96.835
4.320128429	96.822
4.316531235	96.8437
4.312940028	96.8142
4.30935479	96.833
4.305775509	96.8198
4.302202168	96.8406
4.298634754	96.8259
4.29507325	96.8525
4.291517644	96.8528
4.287967919	96.8601
4.284424062	96.8516
4.280886058	96.8689
4.277353892	96.8853
4.27382755	96.8982
4.270307018	96.9094
4.266792281	96.948
4.263283325	96.9719
4.259780136	96.9416
4.256282699	96.9504
4.252791	96.9812
4.249306832	97.0215
4.245826565	96.9902
4.242351994	97.0061
4.238883105	97.0198
4.235419885	97.0618
4.231962319	97.0535
4.228510393	97.0664
4.225064094	97.0459
4.221623408	97.0515
4.218188322	97.0298
4.214758821	97.0359
4.211334892	97.0066
4.207916522	97.0283
4.204503696	97.051
4.201096402	97.043
4.197694626	97.0559
4.194300114	97.074
4.190909331	97.1003
4.187524026	97.0842
4.184144186	97.1125
4.180769797	97.1345
4.177400846	97.178
4.174037321	97.1894
4.170679208	97.2314
4.167326493	97.1875
4.163979165	97.1843
4.16063721	97.2156
4.157300615	97.2585
4.153969367	97.2165
4.150643454	97.2151
4.147322862	97.2039
4.144007579	97.1995
4.140697592	97.1973
4.137392888	97.2012
4.134093455	97.2102
4.130799281	97.2334
4.127510352	97.2581
4.124226656	97.2683
4.120948181	97.2942
4.117674914	97.2981
4.114408535	97.2956
4.111145645	97.2556
4.107887925	97.2786
4.104635365	97.283
4.101387951	97.2932
4.098145671	97.2822
4.094908514	97.2952
4.091676466	97.3057
4.088449517	97.3027
4.085227653	97.2969
4.082010864	97.3279
4.078799136	97.3682
4.075592459	97.3923
4.072390819	97.3926
4.069194206	97.3752
4.066002607	97.3757
4.062816011	97.3799
4.059634406	97.3848
4.056457779	97.4004
4.053286121	97.417
4.050119418	97.3748
4.046957659	97.3821
4.043800833	97.3635
4.040648928	97.4031
4.037503563	97.425
4.034361463	97.4092
4.031224251	97.4021
4.028091913	97.4402
4.024964439	97.4485
4.021841819	97.4658
4.018724039	97.4768
4.01561109	97.4541
4.012502959	97.456
4.009399637	97.4668
4.00630111	97.4905
4.00320737	97.4788
4.000118404	97.5127
3.997034201	97.4748
3.99395475	97.4814
3.990880041	97.4709
3.987810062	97.5234
3.984744803	97.4954
3.981684252	97.498
3.9786284	97.47
3.975577234	97.5002
3.972530744	97.5098
3.96948892	97.5017
3.966451751	97.4783
3.963420797	97.4963
3.960392903	97.55
3.957369631	97.5779
3.954350972	97.5652
3.951336915	97.5818
3.948327449	97.6062
3.945322564	97.6077
3.942322249	97.6455
3.939326493	97.6409
3.936335288	97.6846
3.933348621	97.6721
3.930366483	97.7019
3.927388864	97.6631
3.924415753	97.7107
3.921447139	97.7039
3.918483014	97.7119
3.915523366	97.6604
3.912568186	97.7158
3.909617463	97.7366
3.906671188	97.7248
3.90372935	97.7058
3.900791939	97.7119
3.897858945	97.7463
3.894930359	97.7322
3.892007684	97.7302
3.889087881	97.7283
3.886172454	97.7578
3.883261396	97.7527
3.880354695	97.7341
3.877452343	97.6816
3.874554329	97.6602
3.871660644	97.6438
3.868771278	97.6721
3.865886222	97.6833
3.863005465	97.7346
3.860128998	97.7541
3.857256812	97.7783
3.854388896	97.7747
3.851525243	97.7512
3.848665841	97.7497
3.845812161	97.7664
3.842961232	97.7598
3.840114528	97.7451
3.837272037	97.7361
3.834433752	97.7507
3.831599662	97.7624
3.828769759	97.762
3.825944033	97.7783
3.823122474	97.7976
3.820305074	97.8538
3.817491824	97.8152
3.814682714	97.8557
3.811877735	97.8516
3.809076878	97.8542
3.806280134	97.8088
3.803487494	97.7976
3.800698949	97.8181
3.797914489	97.8369
3.795134107	97.8332
3.792357792	97.8164
3.789585537	97.8455
3.786817332	97.8396
3.784053167	97.8411
3.781293036	97.8269
3.778538356	97.8516
3.77578626	97.8652
3.773038171	97.8723
3.770294079	97.8313
3.767553976	97.8723
3.764817852	97.8779
3.7620857	97.8293
3.759357511	97.7961
3.756633275	97.8064
3.753912985	97.8191
3.751196632	97.8262
3.748484207	97.7981
3.745775701	97.832
3.743071107	97.8396
3.740370416	97.8391
3.73767362	97.8767
3.734980709	97.9001
3.732291676	97.9004
3.729606512	97.8887
3.726925208	97.8855
3.724247758	97.8762
3.721574151	97.9202
3.718904381	97.907
3.716238438	97.8799
3.713577694	97.8323
3.71091938	97.8603
3.708264869	97.8538
3.705614154	97.8398
3.702967225	97.8318
3.700324074	97.8513
3.697684695	97.8601
3.695049078	97.8799
3.692417215	97.8643
3.689789099	97.8386
3.687164722	97.8435
3.684544075	97.8664
3.68192715	97.8562
3.67931394	97.8494
3.676704437	97.8787
3.674098633	97.8738
3.67149652	97.823
3.66889809	97.8289
3.666303336	97.8818
3.663712249	97.8652
3.661124822	97.8545
3.658541047	97.8538
3.655960916	97.8772
3.653384422	97.8816
3.65081289	97.9363
3.648243644	97.9531
3.645678012	97.9514
3.643115986	97.926
3.640557559	97.9512
3.638002722	97.9456
3.635451469	97.9141
3.632903791	97.9255
3.630359682	97.8877
3.627819133	97.8669
3.625282138	97.8254
3.622748688	97.8779
3.620218777	97.866
3.617692397	97.8552
3.615169541	97.8643
3.6126502	97.9141
3.610135673	97.9082
3.607623341	97.8621
3.605114504	97.8733
3.602609154	97.9065
3.600107283	97.8718
3.597608885	97.8679
3.595113953	97.9031
3.592622478	97.9475
3.590134454	97.9883
3.587649874	97.9375
3.585168731	97.8955
3.582691017	97.8928
3.580216725	97.8928
3.577745848	97.8972
3.57527838	97.9092
3.572814313	97.8791
3.57035364	97.9192
3.567896354	97.9043
3.565442448	97.886
3.562991916	97.8664
3.560544749	97.9043
3.558100942	97.906
3.555660487	97.8975
3.553223378	97.8992
3.550790868	97.9287
3.548360427	97.9392
3.545933311	97.9382
3.543509513	97.9456
3.541089027	97.9297
3.538671844	97.9519
3.53625796	97.9236
3.533847367	97.9209
3.531440058	97.9023
3.529036026	97.8906
3.526635266	97.8845
3.524237769	97.8738
3.52184353	97.8633
3.519452542	97.8728
3.517064798	97.884
3.514680292	97.8747
3.512299017	97.875
3.509920967	97.9661
3.507546135	98.0105
3.505174514	97.9788
3.502806098	97.9314
3.500440881	97.9065
3.498078855	97.8811
3.495720015	97.8635
3.493365575	97.8496
3.491013085	97.8528
3.488663762	97.8621
3.486317598	97.8679
3.483974588	97.8542
3.481634725	97.8171
3.479298003	97.8401
3.476964415	97.835
3.474633956	97.8796
3.472306619	97.8586
3.469982397	97.8486
3.467661284	97.8064
3.465343275	97.8289
3.463028363	97.8291
3.460716541	97.831
3.458407804	97.8035
3.456102146	97.834
3.453799559	97.8171
3.451500039	97.7956
3.449203579	97.822
3.446910172	97.8281
3.444619814	97.8015
3.442332497	97.7878
3.440048216	97.8406
3.437768146	97.8398
3.435489916	97.8484
3.433214704	97.8564
3.430942504	97.9167
3.428673309	97.9453
3.426407114	97.9709
3.424143913	97.9158
3.421883699	97.8611
3.419626467	97.7634
3.417372212	97.7236
3.415120926	97.6943
3.412872605	97.6807
3.410627242	97.6594
3.408384831	97.6658
3.406145367	97.6523
3.403908845	97.6331
3.401675257	97.6501
3.399444599	97.6614
3.397216864	97.7205
3.394992047	97.7156
3.392770143	97.6963
3.390551144	97.6758
3.388335047	97.7256
3.386121844	97.7344
3.383912676	97.7832
3.381705245	97.7617
3.379500692	97.7849
3.377299012	97.7881
3.375100198	97.8342
3.372904246	97.8359
3.370711149	97.8047
3.368520903	97.7803
3.366333501	97.6992
3.364148938	97.6609
3.361967208	97.5847
3.359788306	97.5566
3.357612227	97.542
3.355438965	97.5164
3.353268515	97.5203
3.35110087	97.532
3.348937148	97.543
3.346775098	97.5732
3.344615837	97.574
3.342459362	97.6101
3.340305665	97.6052
3.338154741	97.5955
3.336006587	97.6257
3.333861195	97.6575
3.33171856	97.6423
3.329578678	97.6443
3.327441544	97.5867
3.32530715	97.5256
3.323175494	97.5127
3.321046568	97.4971
3.318920368	97.531
3.31679689	97.5234
3.314676126	97.5203
3.312558073	97.5654
3.310442725	97.5823
3.308330077	97.543
3.306220124	97.573
3.304112861	97.583
3.302008281	97.6394
3.299906382	97.6316
3.297808244	97.6042
3.295711686	97.6003
3.293617792	97.6072
3.291526557	97.616
3.289437976	97.635
3.287352045	97.6272
3.285268756	97.5979
3.283188107	97.6111
3.281110091	97.5896
3.279034705	97.5623
3.276961942	97.5637
3.274891798	97.5369
3.272824267	97.5281
3.270759346	97.5583
3.268697029	97.5452
3.26663731	97.5295
3.264580186	97.5662
3.262525652	97.5872
3.260473701	97.5828
3.25842433	97.5911
3.256377534	97.5618
3.254333308	97.512
3.252291646	97.5525
3.250252545	97.5505
3.248217054	97.5305
3.246183057	97.553
3.244151606	97.5623
3.242122696	97.5955
3.240096322	97.6189
3.238072479	97.6116
3.236051163	97.5808
3.234032369	97.5574
3.232016093	97.5271
3.230002329	97.5359
3.227991073	97.5261
3.22598232	97.4871
3.223976065	97.4763
3.221972305	97.4827
3.219971033	97.5198
3.217972246	97.5242
3.215975939	97.5159
3.213982108	97.529
3.211990747	97.4963
3.210001852	97.4788
3.208015419	97.4983
3.206031443	97.4856
3.204049919	97.4319
3.202070843	97.3586
3.200095235	97.3684
3.19812104	97.3977
3.196149279	97.3337
3.194179949	97.2771
3.192213043	97.2805
3.190248559	97.2898
3.18828649	97.2717
3.186326834	97.2644
3.184369586	97.2869
3.18241474	97.2703
3.180462293	97.2156
3.17851224	97.2092
3.176564577	97.2117
3.1746193	97.2136
3.172676403	97.1951
3.170735883	97.1423
3.168797736	97.1106
3.166861956	97.1228
3.164928541	97.0915
3.162997484	97.0984
3.161068783	97.0881
3.159142432	97.0618
3.157218427	97.0139
3.155296765	96.9919
3.153378435	97.0222
3.151461443	96.9836
3.14954678	96.9412
3.147634443	96.9163
3.145724426	96.8923
3.143816726	96.8396
3.141911338	96.8201
3.140008258	96.8079
3.138107483	96.7683
3.136209007	96.7449
3.134312827	96.7292
3.132418938	96.6951
3.130527337	96.7161
3.128638019	96.6521
3.126750981	96.6091
3.124866217	96.5852
3.122984699	96.5417
3.121104471	96.5256
3.119226507	96.5095
3.1173508	96.5193
3.115477349	96.4558
3.113606148	96.3967
3.111737193	96.3445
3.10987048	96.3332
3.108006006	96.2869
3.106143766	96.2156
3.104283756	96.1775
3.102425973	96.1174
3.100570412	96.0354
3.098717069	96.0139
3.096865941	95.9792
3.095017023	95.9978
3.093170311	95.9343
3.091325802	95.8425
3.089483491	95.7815
3.087643375	95.7087
3.085805449	95.7249
3.08396971	95.699
3.082136155	95.6956
3.080304778	95.6658
3.078476524	95.6545
3.076649492	95.6799
3.074824627	95.6448
3.073001926	95.5789
3.071181385	95.5417
3.069363	95.49
3.067546766	95.4558
3.065732681	95.4241
3.06392074	95.385
3.06211094	95.3425
3.060303276	95.2878
3.058497745	95.2424
3.056694344	95.2371
3.054893068	95.1868
3.053093914	95.1653
3.051296877	95.1379
3.049501955	95.1648
3.047709144	95.1882
3.045918439	95.1458
3.044129837	95.0466
3.042343335	95.0374
3.040558928	95.0408
3.038776613	95.0256
3.036996386	94.9749
3.035219166	94.969
3.033443104	94.9587
3.031669119	94.864
3.029897208	94.8718
3.028127367	94.8108
3.026359592	94.7854
3.02459388	94.7244
3.022830228	94.6677
3.021068631	94.6008
3.019309085	94.4587
3.017551589	94.4119
3.015796137	94.385
3.014042726	94.366
3.012291354	94.2576
3.010542015	94.1609
3.008794707	94.0374
3.007049426	93.9866
3.005306169	93.948
3.003564931	93.885
3.00182571	93.7625
3.000088503	93.6267
2.998353304	93.5374
2.996620112	93.4783
2.994888923	93.3831
2.993160628	93.2546
2.991433432	93.1917
2.989708228	93.1023
2.987985013	93.0007
2.986263784	92.9285
2.984544536	92.8147
2.982827267	92.7517
2.981111973	92.6467
2.97939865	92.4734
2.977687296	92.3103
2.975977906	92.1311
2.974270478	91.9749
2.972565009	91.8709
2.970861493	91.7307
2.96915993	91.5261
2.967460314	91.4714
2.965763522	91.2927
2.964067792	91.0964
2.962373999	90.949
2.960682141	90.8699
2.958992215	90.7542
2.957304216	90.6077
2.955618142	90.5413
2.95393399	90.4944
2.952251756	90.3943
2.950571437	90.281
2.94889303	90.1951
2.947216531	90.1214
2.945541937	90.0388
2.943869245	89.95
2.942198452	89.7839
2.940529554	89.6834
2.938862549	89.6682
2.937197432	89.6038
2.935534201	89.5105
2.933872853	89.471
2.932213384	89.4827
2.930555792	89.4295
2.928900072	89.387
2.927246222	89.3455
2.925595095	89.2932
2.923944975	89.2346
2.922296715	89.2346
2.920650312	89.2302
2.919005763	89.1912
2.917363066	89.1511
2.915722216	89.1101
2.91408321	89.0081
2.912446047	88.9749
2.910810722	89.0369
2.909177232	89.0257
2.907545575	89.0662
2.905915747	89.1033
2.904287745	89.1248
2.902661566	89.1463
2.901037208	89.2224
2.899414666	89.2713
2.897793938	89.3362
2.896175022	89.367
2.894557913	89.4553
2.892942609	89.4695
2.891329106	89.5784
2.889717403	89.6843
2.888107495	89.74
2.886500214	89.7595
2.884893888	89.8396
2.883289349	89.9163
2.881686594	89.9163
2.880085619	89.9358
2.878486423	90.0525
2.876889001	90.115
2.875293352	90.0877
2.873699471	90.1336
2.872107357	90.2146
2.870517006	90.3416
2.868928415	90.3831
2.867341582	90.4412
2.865756502	90.4627
2.864173175	90.6179
2.862591596	90.7229
2.861011762	90.7595
2.859433672	90.8005
2.857857321	90.9534
2.856282708	91.053
2.854709829	91.0877
2.853138681	91.1311
2.851569261	91.1643
2.850001568	91.2483
2.848436408	91.2991
2.846872156	91.3635
2.845309621	91.4299
2.8437488	91.5647
2.842189691	91.6716
2.840632291	91.7366
2.839076596	91.8464
2.837522604	91.9417
2.835970313	92.0076
2.834419719	92.0789
2.83287082	92.178
2.831323613	92.2424
2.829778094	92.2737
2.828234263	92.3914
2.826692114	92.5217
2.825151647	92.676
2.823612858	92.8084
2.822075744	92.8557
2.820540303	92.9978
2.819006531	93.0808
2.817474427	93.1834
2.815943987	93.2463
2.81441521	93.3049
2.812888091	93.3972
2.811363418	93.49
2.809839609	93.551
2.80831745	93.6389
2.806796939	93.7654
2.805278075	93.8728
2.803760853	93.9534
2.802245271	94.0842
2.800731327	94.1736
2.799219018	94.1951
2.797708341	94.3025
2.796199294	94.4314
2.794691874	94.5471
2.793186078	94.7048
2.791681905	94.741
2.79017935	94.8357
2.788678412	94.9656
2.787179865	95.0994
2.785682151	95.238
2.784186046	95.3181
2.782691547	95.4202
2.781198652	95.4734
2.779707358	95.5627
2.778217662	95.658
2.776729562	95.7834
2.775243056	95.844
2.77375814	95.9573
2.772274812	95.9827
2.77079307	96.1038
2.769312911	96.2151
2.767834333	96.2971
2.766357333	96.4436
2.764881908	96.449
2.763408056	96.4807
2.761935774	96.6482
2.760465061	96.7917
2.758995913	96.8669
2.757528328	96.9373
2.756062304	97.0212
2.754597837	97.2566
2.753134926	97.3557
2.751674325	97.3811
2.750214517	97.4495
2.748756257	97.5789
2.747299542	97.6824
2.74584437	97.6638
2.74439074	97.6384
2.742938647	97.7009
2.741488091	97.8757
2.740039067	97.9392
2.738591575	97.9221
2.737145611	97.9963
2.735701174	98.1682
2.73425826	98.1643
2.732816867	98.1677
2.731376994	98.1897
2.729938636	98.2556
2.728501793	98.3225
2.727066462	98.2888
2.72563264	98.3005
2.724200325	98.3166
2.722769514	98.3611
2.721340206	98.3103
2.719912397	98.2126
2.718486086	98.1697
2.717062008	98.2053
2.715638684	98.1951
2.714216851	98.2556
2.712796505	98.363
2.711377646	98.365
2.709960269	98.467
2.708544374	98.5334
2.707129958	98.6077
2.705717018	98.6462
2.704305552	98.7346
2.702895558	98.7634
2.701487034	98.7537
2.700079976	98.865
2.698674384	98.8909
2.697270255	98.8596
2.695867585	98.8909
2.694466374	99.0486
2.693066619	99.1565
2.691668318	99.1545
2.690271467	99.1506
2.688876066	99.1872
2.687482111	99.1619
2.686089602	99.1755
2.684698534	99.1521
2.683309626	99.1052
2.681921436	99.199
2.680534681	99.2073
2.679149359	99.2478
2.677765469	99.1838
2.676383008	99.2537
2.675001973	99.2517
2.673622363	99.1995
2.672244175	99.24
2.670867407	99.3513
2.669492057	99.3513
2.668118123	99.281
2.666745602	99.3171
2.665374493	99.3191
2.664004793	99.2429
2.6626365	99.1638
2.66127032	99.2244
2.659904834	99.2302
2.658540748	99.1277
2.657178061	99.1579
2.65581677	99.1609
2.654456873	99.1941
2.653098368	99.2497
2.651741253	99.2292
2.650385525	99.2029
2.649031183	99.2253
2.647678224	99.3357
2.646326647	99.363
2.644976449	99.2693
2.643627628	99.2117
2.642280182	99.238
2.640934109	99.239
2.639589407	99.1804
2.638246073	99.2654
2.636904106	99.3171
2.635563503	99.324
2.634224263	99.2585
2.632886383	99.2712
2.631549862	99.2722
2.630214697	99.3201
2.628881577	99.2478
2.627549117	99.2537
2.626218007	99.2888
2.624888245	99.3415
2.62355983	99.3435
2.622232758	99.3386
2.620907028	99.3591
2.619582638	99.3103
2.618259585	99.3494
2.616937869	99.3074
2.615617486	99.2497
2.614298435	99.3357
2.612980713	99.3376
2.61166432	99.3191
2.610349252	99.3308
2.609035507	99.364
2.607723085	99.3796
2.606411982	99.3708
2.605102197	99.3328
2.603793727	99.3962
2.602486572	99.364
2.601180728	99.3552
2.599876194	99.3747
2.598572968	99.3376
2.597271722	99.3923
2.595971105	99.4392
2.59467179	99.5486
2.593373774	99.5603
2.592077057	99.4724
2.590781636	99.3611
2.589487509	99.4451
2.588194675	99.5271
2.58690313	99.532
2.585612874	99.3728
2.584323905	99.4392
2.58303622	99.5232
2.581749817	99.4304
2.580464695	99.4412
2.579180852	99.4812
2.577898286	99.3064
2.576616995	99.2908
2.575336976	99.3367
2.574058229	99.324
2.572780751	99.2204
2.571504541	99.1775
2.570229596	99.241
2.568955915	99.2732
2.567683495	99.322
2.566412994	99.3757
2.565143091	99.3757
2.563874445	99.3679
2.562607053	99.4587
2.561340913	99.4978
2.560076024	99.5447
2.558812384	99.574
2.55754999	99.4021
2.556288841	99.3601
2.555028936	99.4363
2.553770272	99.446
2.552512847	99.4031
2.55125666	99.4119
2.550001709	99.3162
2.548747991	99.4148
2.547495506	99.4246
2.546244252	99.4617
2.544994225	99.3533
2.543745426	99.3474
2.542497852	99.3787
2.5412515	99.5115
2.54000637	99.4587
2.53876246	99.5505
2.537519767	99.5203
2.536278934	99.5857
2.535038671	99.5163
2.53379962	99.4617
2.53256178	99.4412
2.531325149	99.4265
2.530089725	99.3767
2.528855506	99.3796
2.52762249	99.3953
2.526390677	99.3103
2.525160064	99.3874
2.523930648	99.2937
2.52270243	99.3357
2.521475406	99.3826
2.520249575	99.365
2.519024936	99.3249
2.517801486	99.2976
2.516579857	99.3249
2.515358781	99.3513
2.514138889	99.4314
2.512920179	99.5466
2.511702651	99.5329
2.510486301	99.5388
2.50927113	99.5896
2.508057134	99.5505
2.506844312	99.5857
2.505632662	99.6023
2.504422183	99.5671
2.503212874	99.5193
2.502004731	99.5525
2.500797754	99.5867
2.499591942	99.5779
2.498387291	99.4255
2.497183801	99.3406
2.49598147	99.3181
2.494780296	99.4119
2.493580278	99.3728
2.492381413	99.3826
2.491183701	99.3884
2.489987139	99.4939
2.488791726	99.5544
2.48759808	99.5017
2.486404959	99.5281
2.485212983	99.6443
2.484022149	99.6062
2.482832455	99.5896
2.4816439	99.5505
2.480456483	99.4421
2.479270202	99.3562
2.478085055	99.5085
2.47690104	99.5212
2.475718156	99.5271
2.474536402	99.5173
2.473355775	99.532
2.472176274	99.5935
2.470997898	99.5007
2.469820644	99.531
2.468644512	99.5232
2.467469499	99.6208
2.466295604	99.6716
2.465122826	99.697
2.463951163	99.6599
2.462780612	99.7048
2.461611174	99.739
2.460442845	99.6599
2.45927623	99.6228
2.458110116	99.7117
2.456945108	99.7781
2.455781204	99.7117
2.454618401	99.7087
2.4534567	99.6658
2.452296097	99.5818
2.451136592	99.5671
2.449978183	99.5124
2.448820868	99.5329
2.447664646	99.4802
2.446509516	99.4372
2.445355475	99.4783
2.444202523	99.4704
2.443050657	99.5954
2.441899876	99.5945
2.440750179	99.5906
2.439601564	99.657
2.43845403	99.613
2.437307575	99.5486
2.436162197	99.6101
2.435017895	99.6453
2.433874668	99.5281
2.432732513	99.5544
2.431592022	99.5583
2.430452008	99.4451
2.429313063	99.49
2.428175185	99.4968
2.427038372	99.4529
2.425902624	99.489
2.424767938	99.571
2.423634312	99.5544
2.422501747	99.5242
2.421370239	99.6892
2.420239788	99.7703
2.419110392	99.7937
2.417982049	99.6013
2.416854758	99.6218
2.415728518	99.6579
2.414603328	99.696
2.413479185	99.7898
2.412356088	99.7224
2.411234036	99.6931
2.410113027	99.7244
2.40899306	99.7195
2.407874134	99.5622
2.406756246	99.6218
2.405639396	99.6247
2.40452416	99.6843
2.40340938	99.7185
2.402295634	99.7273
2.401182919	99.6453
2.400071234	99.6218
2.398960578	99.5828
2.39785095	99.5017
2.396742348	99.574
2.39563477	99.5749
2.394528216	99.5134
2.393422683	99.4802
2.392318171	99.6423
2.391214677	99.6169
2.390112201	99.4646
2.389010742	99.4148
2.387910297	99.5046
2.386811435	99.5632
2.385713014	99.5544
2.384615605	99.7087
2.383519204	99.6492
2.382423811	99.5515
2.381329425	99.6326
2.380236043	99.5349
2.379143665	99.5408
2.37805229	99.5662
2.376961915	99.6579
2.375872539	99.7693
2.374784162	99.74
2.373696781	99.7732
2.372610396	99.7185
2.371525004	99.6882
2.370440606	99.6326
2.369357198	99.6794
2.368274781	99.656
2.367193351	99.7107
2.366112909	99.6716
2.365033453	99.5466
2.363954982	99.5056
2.362877493	99.5203
2.361800987	99.3992
2.360726018	99.4919
2.35965147	99.5359
2.3585779	99.7351
2.357505307	99.7078
2.356433688	99.6716
2.355363044	99.8328
2.354293372	99.7732
2.353224671	99.7537
2.35215694	99.7107
2.351090177	99.7341
2.350024382	99.7888
2.348959552	99.7546
2.347895687	99.7898
2.346832785	99.7429
2.345770845	99.7312
2.344709866	99.7263
2.343649846	99.7234
2.342590784	99.7224
2.341532678	99.6814
2.340475528	99.6413
2.339419333	99.6804
2.33836409	99.8445
2.337309798	99.7888
2.336256457	99.6257
2.335204611	99.6091
2.334153166	99.7263
2.333102667	99.7273
2.332053114	99.7888
2.331004504	99.7732
2.329956838	99.6638
2.328910112	99.6228
2.327864326	99.5369
2.32681948	99.4421
2.325775571	99.5046
2.324732598	99.6599
2.32369056	99.7771
2.322649456	99.7898
2.321609284	99.8679
2.320570043	99.8708
2.319531733	99.8679
2.318494351	99.864
2.317457897	99.6794
2.316422369	99.8083
2.315387766	99.7781
2.314354087	99.738
2.31332133	99.7898
2.312289495	99.7068
2.31125858	99.5915
2.310229117	99.5437
2.309200038	99.7888
2.308171875	99.7771
2.307144627	100.0115
2.306118293	99.9031
2.305092872	99.9499
2.304068363	99.9773
2.303044763	99.8435
2.302022073	99.8601
2.301000291	99.8943
2.299979415	99.7937
2.298959445	99.8865
2.297940379	99.9138
2.296922216	99.8913
2.295904955	99.9099
2.294888595	99.8318
2.29387366	99.8005
2.292859097	99.8591
2.291845431	99.906
2.29083266	99.863
2.289820785	99.9372
2.288809803	100.0017
2.287799713	99.9548
2.286790515	99.8201
2.285782206	99.8591
2.284774786	99.7107
2.283768254	99.7576
2.282762608	99.7244
2.281757848	99.8337
2.280753972	99.8747
2.279750978	99.8669
2.278748867	99.7849
2.277747636	99.7361
2.276747284	99.7322
2.275747811	99.6716
2.274749215	99.6365
2.273751494	99.5564
2.272754649	99.6072
2.271758677	99.7869
2.270763578	99.8083
2.269769866	99.6872
2.268776508	99.7556
2.267784019	99.9021
2.266792398	99.9177
2.265801644	99.7966
2.264811756	99.738
2.263822732	99.7986
2.262834571	99.9216
2.261847273	99.9314
2.260860836	99.863
2.259875259	99.904
2.258890541	99.8103
2.257906681	99.7048
2.256923678	99.7126
2.25594153	99.6189
2.254960236	99.5935
2.253979796	99.697
2.253000208	99.906
2.252021471	99.9353
2.251043584	99.8689
2.250066546	99.8865
2.249090355	99.9158
2.248115012	99.9685
2.247140514	100.0115
2.246167365	100.1345
2.245194554	100.0212
2.244222586	100.1013
2.243251458	99.9548
2.242281171	100.0017
2.241311723	100.1501
2.240343113	100.0818
2.23937534	99.9451
2.238408402	99.9333
2.237442299	99.9177
2.23647703	99.9099
2.235512593	99.8689
2.234548988	100.0701
2.233586213	99.9138
2.232624267	99.8591
2.231663149	99.9001
2.230702859	99.9704
2.229743394	99.8845
2.228784755	99.8376
2.22782694	99.8376
2.226869947	99.8611
2.225913777	99.8064
2.224958427	99.9216
2.224003896	99.9646
2.223050679	99.697
2.222097785	99.6619
2.221145707	99.7751
2.220194445	99.8806
2.219243997	99.7927
2.218294362	99.824
2.21734554	99.9529
2.21639753	100.0154
2.215450329	100.0818
2.214503938	100.1286
2.213558355	100.1501
2.212613579	100.1111
2.211669609	100.2204
2.210726445	100.1013
2.209784084	100.0056
2.208842527	99.9665
2.207901771	100.0193
2.206961817	99.9724
2.206022662	99.8376
2.205084307	99.6814
2.204146749	99.8064
2.203209989	99.6658
2.202274024	99.7751
2.201338854	99.8845
2.200404963	99.7048
2.199471379	99.7302
2.198538587	99.5271
2.197606587	99.5876
2.196675376	99.7517
2.195744954	99.9997
2.194815319	100.0662
2.193886472	100.1189
2.192958411	100.1872
2.192031134	100.2244
2.191104641	100.1482
2.190178931	100.1286
2.189254003	100.0427
2.188329856	100.1013
2.187406488	100.0349
2.1864839	100.0798
2.185562567	99.9392
2.184641533	99.9294
2.183721275	99.8279
2.182801792	99.7986
2.181883083	99.8318
2.180965147	100.0193
2.180047983	99.8865
2.17913159	99.7263
2.178215967	99.6775
2.177301113	99.6638
2.176387028	99.7029
2.175473709	99.8318
2.174561157	99.8845
2.17364937	99.9079
2.172738348	100.0056
2.171828089	99.822
2.170918592	99.8513
2.170009856	99.9333
2.169101881	99.8806
2.168194666	99.9997
2.167288209	100.0427
2.166382509	100.1326
2.165477567	100.2204
2.16457338	100.2224
2.163670416	100.2693
2.162767737	100.2536
2.161865811	100.1716
2.160964637	99.9919
2.160064214	100.2986
2.159164542	100.199
2.158265618	100.1365
2.157367442	100.1638
2.156470014	100.1286
2.155573332	100.1833
2.154677395	100.0662
2.153782203	99.9704
2.152887754	99.9001
2.151994048	99.7986
2.151101084	99.781
2.150208861	99.8884
2.149317377	99.9001
2.148426632	99.697
2.147536625	99.6833
2.146647355	99.9079
2.145758822	99.738
2.144871024	99.5701
2.14398396	99.9548
2.143097629	100.0622
2.14221249	100.0466
2.141327623	99.9412
2.140443487	99.9568
2.139560081	99.9138
2.138677403	100.0486
2.137795454	100.1423
2.136914232	100.1521
2.136033736	100.1208
2.135153965	100.156
2.134274919	100.0388
2.133396596	100.0974
2.132518995	100.1794
2.131642117	100.0974
2.130765959	99.9372
2.129890521	99.9333
2.129015803	100.0583
2.128141802	99.9861
2.127268519	99.9294
2.126395952	99.9372
2.125524101	99.7283
2.124652964	99.5779
2.123782542	99.5701
2.122912832	99.5701
2.122043834	99.6091
2.121175997	99.6677
2.12030842	99.7048
2.119441553	99.8162
2.118575394	99.824
2.117709942	99.7888
2.116845198	99.9861
2.115981159	100.1013
2.115117826	100.1599
2.114255197	100.0935
2.113393271	100.0154
2.112532047	100.0388
2.111671525	100.324
2.110811704	100.2888
2.109952583	100.1443
2.109094161	99.9997
2.108236437	99.9001
2.107379855	99.9392
2.106523524	99.9001
2.105667889	99.7068
2.104812949	99.7829
2.103958703	100.0544
2.103105151	100.3083
2.10225229	100.1814
2.101400121	100.1208
2.100548642	100.0662
2.099697853	100.1677
2.098847754	100.2751
2.097998342	100.2185
2.097149617	100.2419
2.096301579	100.2126
2.095454226	100.3083
2.094607559	100.2302
2.093761575	100.3552
2.092916274	100.3982
2.092071655	100.2966
2.091227718	100.0076
2.090384461	99.9939
2.089541885	100.2986
2.088699987	100.2595
2.087858767	100.0935
2.08701866	100.072
2.086178794	100.0329
2.085339604	100.0271
2.084501088	99.9138
2.083663247	99.7263
2.082826078	100.0388
2.081989583	100.0329
2.081153758	99.9939
2.080318605	99.9997
2.079484122	100.4392
